FileType=PCF										
NHL=14										
Date=03/02/16	14:27:15									
Facility=APL										
Serial=15239-4										
Customer=Makani Google										
NP=6										
Mach=0.183										
Calibration=1:1										
CalPts=490										
TstPts=95										
PortNumbering=AP Standard										
Units=Torr C m/s kg/m^3 deg mm 										
Theta[deg]	Phi[deg]	P1[Torr]	P2[Torr]	P3[Torr]	P4[Torr]	P5[Torr]	P6[Torr]	Pt[Torr]	"Ps[Abs,Torr]"	Ts[C]
0	0	16.1704	8.14222	8.03542	8.18764	7.90222	0.17873	16.14792	703.7079	24
1.701	128.56	16.16355	7.69036	8.48319	8.84587	7.24003	0.16472	16.13958	703.6738	24
1.7	77.168	16.16542	8.34596	7.80489	8.96335	7.08477	0.1732	16.15115	703.7494	24
1.701	25.693	16.17364	8.94612	7.28251	8.45367	7.56285	0.1797	16.15593	703.7674	24
1.701	-25.693	16.16227	8.86472	7.29819	7.74013	8.29685	0.17355	16.14601	703.7837	24
1.7	-77.168	16.22687	8.25795	7.87321	7.37448	8.77423	0.18172	16.20593	703.8032	24
1.701	-128.56	16.21274	7.58705	8.55772	7.59088	8.55859	0.16279	16.1887	703.7925	24
1.7	180	16.2277	7.33899	8.84053	8.22846	7.91636	0.16689	16.18584	703.8295	24
3.4	180	16.14673	6.4098	9.58353	8.15525	7.78096	0.11198	16.13737	703.8388	24
3.4	-152.292	16.14456	6.52342	9.44241	7.39835	8.55351	0.11331	16.14361	703.8301	24
3.4	-124.599	16.1451	7.01047	8.93183	6.7686	9.19966	0.11313	16.14104	703.8232	24
3.4	-96.931	16.10865	7.72554	8.16003	6.46802	9.52879	0.11776	16.10993	703.8251	24
3.4	-69.234	16.13711	8.52	7.42268	6.48628	9.48692	0.10118	16.13464	703.848	24
3.4	-41.517	16.17027	9.28334	6.77717	6.89875	9.06418	0.13002	16.16964	703.8658	24
3.399	-13.858	16.12074	9.69483	6.39122	7.55248	8.2997	0.13325	16.12417	703.8648	24
3.399	13.858	16.14128	9.78214	6.37735	8.33894	7.52247	0.13722	16.13275	703.8492	24
3.4	41.517	16.14998	9.4085	6.67533	9.09953	6.7878	0.13334	16.14539	703.8575	24
3.4	69.234	16.13315	8.75239	7.23918	9.63066	6.28449	0.1305	16.12687	703.8685	24
3.4	96.931	16.15491	7.97516	8.01819	9.80076	6.18747	0.11769	16.15095	703.8794	24
3.4	124.599	16.17489	7.18638	8.7914	9.57828	6.43255	0.11576	16.16258	703.8524	24
3.4	152.292	16.17508	6.69111	9.37252	8.97523	7.01243	0.14034	16.16366	703.8676	24
5.1	161.05	16.14127	5.68175	10.24426	8.97504	6.83005	0.04129	16.18484	703.8602	24
5.1	142.106	16.12197	6.05807	9.74073	9.70781	6.13546	0.03601	16.16564	703.866	24
5.1	123.167	16.06964	6.70892	8.99999	10.22987	5.59011	0.03066	16.10985	703.8672	24
5.1	104.205	16.10347	7.52639	8.22267	10.55943	5.29983	0.02768	16.1468	703.87	24
5.1	85.27	16.12242	8.34531	7.41395	10.56549	5.27352	0.03212	16.16124	703.8646	24
5.101	66.305	16.11078	9.16222	6.60338	10.26153	5.53233	0.02932	16.09232	703.8565	24
5.101	47.367	16.11499	9.85246	6.01978	9.76654	5.98443	0.05618	16.16565	703.8531	24
5.101	28.417	16.11822	10.33815	5.63576	9.04142	6.65492	0.08031	16.17633	703.8678	24
5.1	9.484	16.11671	10.60167	5.4932	8.1897	7.45266	0.0541	16.16093	703.8617	24
5.1	-9.484	16.12062	10.50807	5.53395	7.37769	8.26205	0.05029	16.16991	703.8714	24
5.101	-28.417	16.09876	10.16798	5.76869	6.61016	9.08186	0.06404	16.1446	703.8687	24
5.101	-47.367	16.06052	9.56831	6.23653	5.97367	9.73649	0.06379	16.11497	703.8553	24
5.101	-66.305	16.07618	8.81006	6.94495	5.58889	10.21525	0.04932	16.13065	703.8532	24
5.1	-85.27	16.10427	7.98865	7.73746	5.51376	10.40424	0.04938	16.16156	703.8553	24
5.1	-104.205	16.14079	7.20027	8.53985	5.5957	10.3235	0.05251	16.1983	703.8592	24
5.1	-123.167	16.08774	6.42944	9.27604	5.92128	9.89842	0.05715	16.12918	703.8521	24
5.1	-142.106	16.08108	5.84911	9.90383	6.51827	9.22495	0.04341	16.14636	703.86	24
5.1	-161.05	16.07865	5.52615	10.29812	7.26811	8.42488	0.0494	16.13067	703.857	24
5.1	180	16.0931	5.46218	10.40744	8.09375	7.60428	0.04305	16.13742	703.8651	24
6.8	180	15.96539	4.45685	11.16428	7.99046	7.42753	-0.0604	16.12649	703.8474	24
6.801	-166.152	16.028	4.53311	11.14963	7.20832	8.25745	-0.07353	16.19081	703.8294	24
6.8	-152.3	15.96858	4.72459	10.85223	6.39764	9.03848	-0.0693	16.13905	703.8443	24
6.8	-138.471	15.95109	5.11173	10.3741	5.69109	9.79916	-0.05799	16.11671	703.8571	24
6.801	-124.62	15.96298	5.68438	9.73011	5.1282	10.43881	-0.05553	16.133	703.8554	24
6.801	-110.776	15.98341	6.36627	8.99875	4.76609	10.89991	-0.05388	16.16566	703.8427	24
6.799	-96.922	15.93033	7.13272	8.17845	4.57182	11.09348	-0.04318	16.1034	703.84	24
6.799	-83.078	15.97068	7.95569	7.43219	4.53863	11.15142	-0.05144	16.14015	703.8607	24
6.801	-69.224	15.9712	8.76771	6.66427	4.62163	10.99269	-0.07284	16.14062	703.8563	24
6.801	-55.38	15.94936	9.5435	5.92923	4.88711	10.61396	-0.0617	16.12178	703.8653	24
6.8	-41.529	15.95867	10.24582	5.32948	5.37804	10.06479	-0.06568	16.13186	703.8622	24
6.8	-27.7	15.93508	10.77191	4.89393	6.0082	9.30773	-0.06691	16.10216	703.8678	24
6.801	-13.848	15.94984	11.12383	4.64733	6.7505	8.54049	-0.02885	16.11739	703.8683	24
6.8	0	15.93898	11.30149	4.52215	7.52965	7.70999	0.00089	16.10494	703.8781	24
6.801	13.848	15.9813	11.26334	4.55425	8.36914	6.97779	-0.02399	16.14925	703.8857	24
6.8	27.7	15.97626	11.01336	4.7067	9.202	6.17643	-0.03834	16.12951	703.8887	24
6.8	41.529	15.95599	10.54694	5.05384	9.96169	5.49202	-0.05007	16.14434	703.887	24
6.801	55.38	15.97581	9.96544	5.58318	10.58089	4.94354	-0.05492	16.13401	703.8808	24
6.801	69.224	15.96504	9.23825	6.25706	11.02102	4.54212	-0.04269	16.12318	703.8633	24
6.799	83.078	15.98512	8.43917	7.0091	11.28784	4.32114	-0.0457	16.14115	703.8614	24
6.799	96.922	15.98044	7.61285	7.79225	11.34863	4.28637	-0.06672	16.13225	703.8724	24
6.801	110.776	15.99392	6.79083	8.6048	11.20925	4.43156	-0.0739	16.13807	703.8794	24
6.801	124.62	15.98587	6.03062	9.39855	10.83089	4.73548	-0.0642	16.13223	703.9063	24
6.8	138.471	15.99866	5.4383	10.1278	10.30969	5.26539	-0.07914	16.13093	703.8919	24
6.8	152.3	16.01409	4.91472	10.69322	9.64363	5.91187	-0.03811	16.16957	703.8936	24
6.801	166.152	15.98718	4.61302	11.03839	8.84431	6.62727	-0.03498	16.14634	703.8952	24
8.499	168.75	15.79529	3.59111	11.74944	8.71281	6.37547	-0.18801	16.12916	703.8802	24
8.499	157.502	15.78194	3.78155	11.43491	9.52309	5.58656	-0.21323	16.10647	703.8792	24
8.501	146.246	15.77693	4.19752	10.96379	10.26144	4.90558	-0.20708	16.09738	703.8488	24
8.5	135.003	15.82022	4.77869	10.3648	10.94146	4.33042	-0.17103	16.1357	703.8507	24
8.499	123.752	15.82561	5.46739	9.62477	11.466	3.87948	-0.18252	16.14431	703.8595	24
8.501	112.496	15.83254	6.22286	8.81767	11.835	3.52921	-0.21313	16.14853	703.8676	24
8.501	101.249	15.83792	7.05841	7.96886	12.04811	3.38135	-0.21083	16.15325	703.8707	24
8.5	90	15.84894	7.92572	7.17052	12.09301	3.35657	-0.16716	16.17083	703.8834	24
8.501	78.751	15.84527	8.76268	6.39755	11.94974	3.45034	-0.16215	16.16055	703.9021	24
8.501	67.504	15.82926	9.55767	5.65459	11.63597	3.68552	-0.17202	16.16677	703.9138	24
8.499	56.248	15.78939	10.29382	4.95461	11.13618	4.05745	-0.18018	16.12763	703.9255	24
8.5	44.997	15.82488	10.96707	4.40393	10.56525	4.60311	-0.1506	16.16488	703.9032	24
8.501	33.754	15.77817	11.42403	3.9718	9.79997	5.24417	-0.13602	16.11559	703.917	24
8.499	22.498	15.78011	11.78512	3.70332	9.00107	5.98118	-0.15193	16.11384	703.9016	24
8.499	11.25	15.75626	11.97147	3.58745	8.13576	6.77503	-0.17234	16.09193	703.9026	24
8.5	0	15.81015	11.98118	3.55225	7.3149	7.58836	-0.05991	16.04282	703.8863	24
8.499	-11.25	15.75467	11.8331	3.63975	6.45843	8.40135	-0.15577	16.0918	703.897	24
8.499	-22.498	15.7749	11.52504	3.87521	5.71483	9.22762	-0.17549	16.11452	703.9182	24
8.501	-33.754	15.77928	11.05491	4.24134	5.01678	10.02008	-0.19339	16.12583	703.9306	24
8.5	-44.997	15.76339	10.43273	4.72372	4.42889	10.68986	-0.16132	16.11308	703.9324	24
8.499	-56.248	15.74256	9.7154	5.36933	3.97405	11.21121	-0.19369	16.0939	703.9309	24
8.501	-67.504	15.75032	8.92004	6.10489	3.6936	11.58673	-0.21823	16.0972	703.932	24
8.501	-78.751	15.73583	8.1	6.87642	3.55181	11.78797	-0.216	16.08799	703.9306	24
8.5	-90	15.7804	7.31729	7.67962	3.55175	11.86957	-0.17077	16.12193	703.9231	24
8.501	-101.249	15.81154	6.49363	8.51647	3.64816	11.76773	-0.2013	16.16442	703.9229	24
8.501	-112.496	15.81816	5.68626	9.32653	3.85684	11.49105	-0.20339	16.17171	703.9216	24
8.499	-123.752	15.75103	4.95893	10.04917	4.24161	10.99701	-0.17766	16.10478	703.9248	24
8.5	-135.003	15.74562	4.39024	10.7132	4.77024	10.39234	-0.16483	16.09282	703.9175	24
8.501	-146.246	15.78067	3.85768	11.26688	5.46607	9.66319	-0.19111	16.12958	703.9409	24
8.499	-157.502	15.72477	3.55094	11.59123	6.21775	8.79024	-0.2117	16.05907	703.944	24
8.499	-168.75	15.75587	3.42806	11.81877	7.04126	7.96609	-0.19944	16.08569	703.9579	24
8.5	180	15.76945	3.40333	11.86525	7.87357	7.1728	-0.1659	16.10375	703.938	24
10.2	180	15.5141	2.4104	12.53599	7.68892	6.90432	-0.31532	16.08818	703.9073	24
10.201	-170.52	15.52511	2.42695	12.52053	6.86444	7.70452	-0.36798	16.09668	703.9085	24
10.2	-161.059	15.51661	2.53453	12.34851	6.0439	8.56569	-0.36855	16.0998	703.9238	24
10.2	-151.578	15.53797	2.76142	12.05309	5.24845	9.44528	-0.38221	16.12066	703.9298	24
10.2	-142.098	15.48195	3.11439	11.56478	4.50827	10.21577	-0.32405	16.06441	703.9316	24
10.199	-132.631	15.51436	3.62281	11.01925	3.87801	10.94076	-0.32956	16.10083	703.9081	24
10.199	-123.158	15.50792	4.28032	10.33177	3.36171	11.51686	-0.35919	16.09382	703.8934	24
10.201	-113.687	15.53316	5.02366	9.58976	2.99146	12.01116	-0.37082	16.12534	703.8877	24
10.201	-104.215	15.51271	5.7938	8.76394	2.71991	12.32713	-0.37641	16.10565	703.8652	24
10.199	-94.735	15.54538	6.61708	7.92673	2.58655	12.53297	-0.32563	16.13881	703.8502	24
10.199	-85.265	15.54554	7.46303	7.077	2.5493	12.56499	-0.33381	16.13128	703.8461	24
10.201	-75.785	15.55308	8.29898	6.28681	2.60917	12.47044	-0.3893	16.14632	703.8623	24
10.201	-66.313	15.5846	9.13893	5.52081	2.77819	12.2468	-0.37479	16.1812	703.865	24
10.199	-56.842	15.4922	9.89461	4.75516	3.0445	11.76801	-0.36585	16.08287	703.8508	24
10.199	-47.369	15.52499	10.66068	4.12387	3.4797	11.28307	-0.29007	16.11572	703.8544	24
10.2	-37.902	15.53315	11.31482	3.57574	4.0144	10.64677	-0.33434	16.11611	703.8695	24
10.2	-28.422	15.53867	11.84083	3.1701	4.65657	9.89803	-0.3307	16.12084	703.8777	24
10.2	-18.941	15.48504	12.20542	2.87236	5.37794	9.0437	-0.30482	16.05811	703.8661	24
10.201	-9.493	15.50187	12.50031	2.65356	6.19461	8.21707	-0.27402	16.07242	703.8569	24
10.2	0	15.52102	12.65463	2.5611	7.01542	7.36801	-0.24521	16.08379	703.8611	24
10.201	9.48	15.54334	12.66242	2.61368	7.88512	6.59039	-0.32245	16.11094	703.8642	24
10.2	18.941	15.58374	12.53423	2.69889	8.76564	5.79915	-0.3096	16.14831	703.8546	24
10.2	28.422	15.57053	12.22152	2.9239	9.59552	5.02359	-0.30178	16.13617	703.8601	24
10.2	37.902	15.60407	11.81174	3.25852	10.41147	4.30962	-0.27374	16.18071	703.8242	24
10.199	47.369	15.55574	11.22897	3.73212	11.08148	3.70096	-0.27718	16.12818	703.8476	24
10.199	56.842	15.5662	10.57026	4.32265	11.68216	3.18667	-0.30605	16.13692	703.844	24
10.201	66.313	15.59671	9.83161	5.01135	12.16324	2.82371	-0.30151	16.15711	703.8223	24
10.201	75.785	15.58261	8.97946	5.72059	12.49316	2.54648	-0.30734	16.14206	703.8118	24
10.199	85.265	15.56654	8.09254	6.46424	12.67893	2.38108	-0.29909	16.11505	703.8232	24
10.199	94.735	15.53665	7.24569	7.26408	12.70415	2.30571	-0.32757	16.08079	703.831	24
10.201	104.215	15.62863	6.45284	8.17037	12.67859	2.43989	-0.36185	16.17429	703.8535	24
10.201	113.687	15.54501	5.58274	8.97741	12.36923	2.67937	-0.3634	16.0908	703.863	24
10.199	123.158	15.59026	4.83848	9.81052	12.03752	2.95405	-0.33229	16.13564	703.8622	24
10.199	132.631	15.57051	4.12556	10.55678	11.51381	3.37549	-0.29107	16.11849	703.8656	24
10.2	142.098	15.57367	3.50336	11.22642	10.90318	3.90374	-0.3534	16.13196	703.8761	24
10.2	151.578	15.52367	3.04131	11.74308	10.14425	4.5467	-0.35599	16.08536	703.8371	24
10.2	161.059	15.52182	2.71976	12.15884	9.37207	5.26149	-0.34903	16.0911	703.8169	24
10.201	170.52	15.54049	2.48846	12.44644	8.55337	6.06061	-0.3094	16.11881	703.8218	24
11.9	171.82	15.21891	1.51561	13.07235	8.33819	5.75994	-0.47458	16.09702	703.8137	24
11.901	163.639	15.20142	1.68474	12.80978	9.12509	4.95927	-0.52631	16.07713	703.8274	24
11.899	155.455	15.22486	1.96797	12.45463	9.95248	4.20231	-0.5139	16.09624	703.8427	24
11.9	147.273	15.20012	2.37345	11.93055	10.69694	3.5063	-0.52455	16.05649	703.8496	24
11.9	139.089	15.25349	2.86157	11.36885	11.43141	2.93753	-0.50093	16.10946	703.8169	24
11.9	130.904	15.27396	3.4795	10.7127	12.03694	2.43919	-0.44888	16.12979	703.8252	24
11.899	122.725	15.26432	4.19181	9.95217	12.53128	2.09223	-0.51156	16.10831	703.8247	24
11.901	114.548	15.25355	4.9533	9.13864	12.91487	1.80237	-0.53715	16.09559	703.8357	24
11.899	106.363	15.27437	5.78604	8.28539	13.19166	1.51906	-0.53838	16.11771	703.8318	24
11.9	98.186	15.23312	6.57756	7.39208	13.29677	1.3296	-0.53741	16.07774	703.8303	24
11.9	90	15.22316	7.43683	6.51928	13.30687	1.29381	-0.46706	16.06641	703.8201	24
11.9	81.814	15.21259	8.30704	5.72049	13.18821	1.4037	-0.46616	16.06876	703.8174	24
11.899	73.637	15.26869	9.21004	4.98401	12.99842	1.5856	-0.49743	16.1427	703.7984	24
11.901	65.452	15.22776	10.02156	4.28543	12.60338	1.86527	-0.47395	16.09434	703.7882	24
11.899	57.275	15.22501	10.78515	3.62169	12.12336	2.27687	-0.45284	16.09584	703.7782	24
11.9	49.096	15.20559	11.45493	3.01746	11.51963	2.77785	-0.44468	16.07433	703.796	24
11.9	40.911	15.21714	12.05547	2.51941	10.84596	3.35452	-0.42153	16.08806	703.7962	24
11.9	32.727	15.20765	12.53269	2.13977	10.08165	4.00408	-0.46193	16.08176	703.8152	24
11.899	24.545	15.22705	12.90117	1.87266	9.28062	4.76405	-0.48097	16.09098	703.8349	24
11.901	16.361	15.22409	13.14839	1.67174	8.43779	5.54562	-0.47135	16.09047	703.8292	24
11.9	8.18	15.24873	13.29156	1.61627	7.5858	6.38906	-0.47811	16.10981	703.825	24
11.9	0	15.21198	13.26782	1.57832	6.70727	7.14854	-0.40354	16.07767	703.8051	24
11.9	-8.18	15.20152	13.13164	1.65484	5.87081	7.99168	-0.43346	16.06903	703.8071	24
11.901	-16.361	15.23052	12.90355	1.85907	5.08444	8.86206	-0.48372	16.10072	703.8014	24
11.899	-24.545	15.21557	12.52345	2.11629	4.32843	9.69573	-0.49201	16.08516	703.7931	24
11.9	-32.727	15.21397	12.05945	2.45629	3.62864	10.48711	-0.49325	16.08575	703.8194	24
11.9	-40.911	15.22577	11.48429	2.94734	3.04254	11.20814	-0.48553	16.11184	703.7984	24
11.9	-49.096	15.25368	10.81324	3.51709	2.51607	11.83278	-0.47707	16.14572	703.7872	24
11.899	-57.275	15.19759	10.00967	4.15301	2.12357	12.30987	-0.55559	16.09692	703.7979	24
11.901	-65.452	15.19287	9.21483	4.8585	1.82527	12.7149	-0.55634	16.09201	703.8169	24
11.899	-73.637	15.21151	8.37246	5.62781	1.6525	12.99345	-0.56666	16.10126	703.8065	24
11.9	-81.814	15.26147	7.57505	6.4608	1.58035	13.18507	-0.56155	16.15351	703.8013	24
11.9	-90	15.22805	6.70051	7.29317	1.5648	13.18335	-0.49425	16.11892	703.8172	24
11.9	-98.186	15.22258	5.84891	8.15654	1.6499	13.08374	-0.51901	16.1174	703.8142	24
11.899	-106.363	15.19916	5.0368	8.98717	1.83036	12.8368	-0.53916	16.09366	703.8271	24
11.901	-114.548	15.16432	4.29494	9.77669	2.10568	12.46298	-0.51998	16.05799	703.8368	24
11.899	-122.725	15.24646	3.59777	10.59805	2.48849	12.05062	-0.53946	16.13449	703.828	24
11.9	-130.904	15.26794	2.97442	11.30513	3.02195	11.47073	-0.52421	16.15069	703.8183	24
11.9	-139.089	15.20222	2.41483	11.86258	3.54784	10.7512	-0.48329	16.08822	703.8198	24
11.9	-147.273	15.15691	1.99513	12.33217	4.22281	9.95605	-0.54636	16.04582	703.8399	24
11.899	-155.455	15.1679	1.71812	12.7202	4.98286	9.13506	-0.53638	16.06027	703.842	24
11.901	-163.639	15.21187	1.52396	13.01772	5.80866	8.27149	-0.53215	16.10089	703.8481	24
11.9	-171.82	15.19427	1.43763	13.13657	6.63574	7.37391	-0.54168	16.06998	703.8235	24
11.9	180	15.17576	1.45266	13.12538	7.45562	6.56972	-0.48522	16.04618	703.8292	24
13.6	180	14.83704	0.49065	13.72267	7.22231	6.25466	-0.69116	16.07455	703.8321	24
13.599	-172.797	14.81945	0.4333	13.70348	6.37162	7.08402	-0.74119	16.05464	703.8191	24
13.6	-165.602	14.82723	0.48	13.60805	5.53942	7.90827	-0.7429	16.07811	703.8263	24
13.599	-158.395	14.78033	0.64114	13.34982	4.69377	8.78899	-0.73424	16.03585	703.8151	24
13.601	-151.203	14.8365	0.90848	13.06772	3.94186	9.68016	-0.7625	16.1021	703.8166	24
13.6	-144.005	14.82672	1.24663	12.62116	3.22639	10.47271	-0.7402	16.08912	703.8286	24
13.599	-136.803	14.83603	1.70211	12.08181	2.63383	11.20718	-0.71728	16.08042	703.8216	24
13.6	-129.597	14.83087	2.23507	11.43872	2.118	11.86928	-0.73711	16.06875	703.8253	24
13.6	-122.397	14.85013	2.84587	10.74593	1.66565	12.4444	-0.73888	16.08539	703.8372	24
13.6	-115.196	14.85245	3.54828	9.9786	1.23659	12.94262	-0.72744	16.09936	703.8364	24
13.6	-108.002	14.83911	4.28452	9.1648	0.95498	13.29646	-0.72782	16.09802	703.8287	24
13.6	-100.799	14.83386	5.06906	8.32344	0.75243	13.55307	-0.74218	16.09117	703.8445	24
13.601	-93.596	14.87024	5.92695	7.48049	0.62939	13.72563	-0.71626	16.1187	703.8275	24
13.601	-86.404	14.8533	6.76326	6.5944	0.57786	13.74514	-0.7657	16.09914	703.8191	24
13.6	-79.201	14.84096	7.60944	5.74301	0.61217	13.66737	-0.78405	16.09048	703.817	24
13.6	-71.998	14.81866	8.46081	4.92967	0.71929	13.46756	-0.75815	16.06677	703.8141	24
13.6	-64.804	14.83018	9.30695	4.18191	0.90584	13.19123	-0.7487	16.08105	703.8132	24
13.6	-57.603	14.83989	10.12095	3.50428	1.19573	12.80023	-0.75036	16.09954	703.8005	24
13.6	-50.403	14.83636	10.87503	2.85712	1.55868	12.30866	-0.70447	16.08634	703.8138	24
13.599	-43.197	14.81862	11.5638	2.2514	2.03863	11.69206	-0.68321	16.05858	703.8074	24
13.6	-35.995	14.83752	12.19542	1.7969	2.62605	11.01808	-0.69808	16.06573	703.8404	24
13.601	-28.797	14.85003	12.72096	1.3721	3.30775	10.28144	-0.66276	16.07082	703.8255	24
13.599	-21.605	14.8445	13.13314	1.11058	4.0205	9.47035	-0.66324	16.06106	703.8008	24
13.6	-14.398	14.86003	13.46808	0.90955	4.77928	8.6441	-0.64245	16.07731	703.7968	24
13.599	-7.203	14.85573	13.68876	0.7797	5.57014	7.81593	-0.60365	16.06553	703.7991	24
13.6	0	14.87089	13.82659	0.69113	6.39424	6.97639	-0.58252	16.08018	703.8069	24
13.599	7.203	14.86956	13.83612	0.66421	7.24224	6.15135	-0.63784	16.08389	703.8077	24
13.6	14.398	14.88878	13.74992	0.71048	8.10289	5.32052	-0.64502	16.10357	703.8187	24
13.599	21.605	14.86028	13.5125	0.82163	8.92824	4.51212	-0.6474	16.07318	703.8201	24
13.601	28.797	14.88967	13.23288	1.01971	9.78305	3.76352	-0.66118	16.11491	703.8131	24
13.6	35.995	14.83637	12.7632	1.33635	10.52354	3.05113	-0.65693	16.05116	703.8075	24
13.599	43.197	14.77756	12.19208	1.79554	11.20521	2.40785	-0.59763	15.9905	703.8095	24
13.6	50.403	14.86781	11.64178	2.33333	11.94581	1.8418	-0.62926	16.08774	703.8131	24
13.6	57.603	14.84793	10.92379	2.92357	12.51956	1.23969	-0.62393	16.06419	703.8133	24
13.6	64.804	14.85754	10.17257	3.56292	13.02085	0.84148	-0.65122	16.08769	703.8048	24
13.6	71.998	14.87868	9.36059	4.23977	13.41363	0.55415	-0.67922	16.10163	703.8123	24
13.6	79.201	14.83271	8.45984	4.9818	13.63551	0.31436	-0.68462	16.0373	703.8048	24
13.601	86.404	14.85132	7.59193	5.80294	13.81246	0.20439	-0.6511	16.05252	703.785	24
13.601	93.596	14.87111	6.73203	6.64221	13.8733	0.21196	-0.69521	16.06402	703.8057	24
13.6	100.799	14.8827	5.90035	7.51048	13.82337	0.33491	-0.72217	16.07381	703.8065	24
13.6	108.002	14.80848	5.05209	8.32344	13.5926	0.45991	-0.72431	16.0058	703.8201	24
13.6	115.196	14.86096	4.28083	9.19596	13.3626	0.676	-0.73842	16.05994	703.8213	24
13.6	122.397	14.87649	3.54191	10.02885	12.98486	0.98384	-0.72046	16.07925	703.817	24
13.6	129.597	14.91642	2.83107	10.82803	12.52414	1.35442	-0.64013	16.12309	703.8114	24
13.599	136.803	14.85087	2.17332	11.4798	11.88426	1.80722	-0.67196	16.05431	703.8138	24
13.6	144.005	14.83761	1.73671	12.08457	11.23188	2.44465	-0.71655	16.04525	703.8006	24
13.601	151.203	14.82559	1.33178	12.62101	10.50768	3.08371	-0.70567	16.04265	703.8138	24
13.599	158.395	14.87206	1.0435	13.08384	9.75025	3.83084	-0.70133	16.09254	703.8209	24
13.6	165.602	14.86474	0.71033	13.41896	8.90975	4.59815	-0.71145	16.11404	703.8209	24
13.599	172.797	14.83262	0.55497	13.62508	8.06089	5.38964	-0.66171	16.07103	703.8331	24
15.301	173.57	14.41143	-0.38748	14.13208	7.80517	5.02346	-0.88613	16.07356	703.817	24
15.3	167.147	14.40428	-0.18264	13.91366	8.64746	4.21667	-0.92081	16.05523	703.8131	24
15.3	160.716	14.42612	0.02522	13.62466	9.48302	3.44249	-0.89885	16.07146	703.816	24
15.3	154.282	14.38412	0.29312	13.1855	10.25299	2.67268	-0.90028	16.01686	703.8299	24
15.299	147.86	14.4214	0.65039	12.73278	11.0322	2.01727	-0.90832	16.05252	703.8194	24
15.3	141.425	14.45243	1.09515	12.17609	11.73625	1.39516	-0.91744	16.07906	703.814	24
15.299	134.999	14.47138	1.54819	11.54138	12.38263	0.79436	-0.88668	16.09473	703.8033	24
15.3	128.574	14.41759	2.11664	10.79276	12.88096	0.44178	-0.88671	16.02783	703.802	24
15.3	122.14	14.42576	2.84704	10.03552	13.37329	0.09894	-0.95064	16.03805	703.8023	24
15.299	115.719	14.41566	3.57031	9.21719	13.7485	-0.19347	-0.95928	16.02876	703.7972	24
15.299	109.288	14.44709	4.38113	8.39578	14.05231	-0.39255	-0.93885	16.04638	703.8031	24
15.299	102.854	14.42533	5.18704	7.54955	14.21611	-0.53315	-0.92793	16.01584	703.8157	24
15.299	96.427	14.47238	6.02527	6.71817	14.36946	-0.70808	-0.937	16.07721	703.8183	24
15.3	90	14.46411	6.89067	5.88943	14.36819	-0.77024	-0.90334	16.07164	703.8189	24
15.299	83.573	14.42841	7.74077	5.05906	14.24928	-0.75059	-0.90187	16.04973	703.8215	24
15.299	77.146	14.42655	8.61427	4.23979	14.05485	-0.59768	-0.90993	16.05734	703.8023	24
15.299	70.712	14.42975	9.47908	3.46298	13.76533	-0.36586	-0.87816	16.06576	703.7998	24
15.299	64.281	14.4208	10.29457	2.81735	13.36385	-0.05221	-0.82592	16.0619	703.7752	24
15.3	57.86	14.42167	11.05447	2.20972	12.87398	0.35562	-0.81262	16.06108	703.7954	24
15.3	51.426	14.38642	11.73695	1.60836	12.26529	0.82155	-0.82044	16.01295	703.8053	24
15.299	45.001	14.43443	12.40972	1.11929	11.65204	1.3562	-0.81395	16.06714	703.8037	24
15.3	38.575	14.42515	12.94591	0.5997	10.93137	2.06965	-0.85733	16.05218	703.7957	24
15.299	32.14	14.44504	13.44284	0.25809	10.18672	2.711	-0.87903	16.07722	703.7989	24
15.3	25.718	14.43883	13.80802	0.03153	9.38341	3.42718	-0.84733	16.07017	703.8063	24
15.3	19.284	14.4605	14.09821	-0.14379	8.55712	4.21362	-0.82956	16.09031	703.807	24
15.3	12.853	14.47255	14.28239	-0.24251	7.71994	5.02708	-0.83293	16.09929	703.8159	24
15.301	6.43	14.48205	14.37097	-0.26203	6.88236	5.87428	-0.8297	16.11275	703.8151	24
15.3	0	14.47535	14.35081	-0.2506	6.0236	6.71799	-0.81458	16.09897	703.8068	24
15.301	-6.43	14.50228	14.25622	-0.15758	5.2252	7.55209	-0.83257	16.12686	703.808	24
15.3	-12.853	14.44498	13.99962	-0.03104	4.41604	8.33542	-0.90514	16.07034	703.7898	24
15.3	-19.284	14.3773	13.64609	0.15053	3.64219	9.15015	-0.9057	15.99623	703.8058	24
15.3	-25.718	14.45372	13.33482	0.43532	2.94803	10.02269	-0.9124	16.08582	703.7769	24
15.299	-32.14	14.40546	12.80642	0.73234	2.24093	10.78087	-0.92637	16.0412	703.7694	24
15.3	-38.575	14.44445	12.27703	1.0832	1.62967	11.54163	-0.96706	16.09608	703.7847	24
15.299	-45.001	14.41469	11.61752	1.61833	1.07384	12.19071	-0.97423	16.07217	703.7959	24
15.3	-51.426	14.39248	10.88799	2.20029	0.65229	12.73474	-1.0025	16.05621	703.7941	24
15.3	-57.86	14.3411	10.08914	2.82779	0.28805	13.17788	-1.01527	16.00175	703.8108	24
15.299	-64.281	14.38971	9.31746	3.499	0.00096	13.61232	-1.00366	16.06179	703.8154	24
15.299	-70.712	14.34813	8.46189	4.21571	-0.20702	13.88048	-1.00944	16.01971	703.7998	24
15.299	-77.146	14.37302	7.6262	5.01478	-0.34487	14.1078	-1.0493	16.04644	703.7962	24
15.299	-83.573	14.37247	6.778	5.84181	-0.36653	14.21127	-1.06314	16.04177	703.7984	24
15.3	-90	14.41116	5.93878	6.71495	-0.33666	14.25355	-1.0376	16.07709	703.7994	24
15.299	-96.427	14.41104	5.08578	7.59081	-0.29563	14.18308	-1.0288	16.08954	703.8356	24
15.299	-102.854	14.36185	4.25802	8.41114	-0.158	13.96259	-1.02387	16.03991	703.8315	24
15.299	-109.288	14.33388	3.47913	9.21398	0.06184	13.64846	-0.97785	16.00802	703.7946	24
15.299	-115.719	14.3675	2.74063	10.03841	0.35555	13.29576	-0.97095	16.03548	703.7975	24
15.3	-122.14	14.38272	2.1063	10.81011	0.79183	12.81516	-0.98345	16.03452	703.7982	24
15.3	-128.574	14.42671	1.51292	11.55752	1.23677	12.28873	-1.01606	16.08073	703.8023	24
15.299	-134.999	14.38311	0.95356	12.18752	1.695	11.62906	-1.0134	16.05525	703.7898	24
15.3	-141.425	14.3834	0.48333	12.77802	2.27487	10.91445	-1.03367	16.07416	703.7897	24
15.299	-147.86	14.37654	0.13201	13.25758	2.93068	10.12737	-1.04224	16.06096	703.7867	24
15.3	-154.282	14.37564	-0.17295	13.63132	3.6491	9.29469	-1.01389	16.05558	703.7779	24
15.3	-160.716	14.39617	-0.3887	13.93938	4.4264	8.44009	-0.99237	16.08135	703.7598	24
15.3	-167.147	14.42262	-0.50085	14.14668	5.25281	7.55735	-0.99419	16.10219	703.7717	24
15.301	-173.57	14.42712	-0.53117	14.24327	6.08736	6.74663	-1.00663	16.09879	703.7732	24
15.3	180	14.42871	-0.47523	14.23617	6.93467	5.91956	-0.97567	16.09356	703.7897	24
17	180	13.94595	-1.39463	14.67682	6.65127	5.49299	-1.25024	16.07928	703.7813	24
17	-174.191	13.92228	-1.48434	14.66774	5.79112	6.30197	-1.2628	16.08499	703.7751	24
17.001	-168.385	13.91966	-1.49742	14.60687	4.95493	7.10221	-1.26197	16.07621	703.7681	24
16.999	-162.578	13.89325	-1.4262	14.42661	4.12734	7.9832	-1.23841	16.05929	703.7537	24
17	-156.773	13.89915	-1.25098	14.178	3.36261	8.84932	-1.2447	16.06129	703.761	24
16.999	-150.964	13.94414	-0.99875	13.87122	2.62079	9.71061	-1.28468	16.09899	703.7733	24
17.001	-145.161	13.87529	-0.67432	13.37987	1.94282	10.50358	-1.33326	16.03964	703.7643	24
17	-139.357	13.91197	-0.28313	12.89795	1.34185	11.28712	-1.328	16.07532	703.7622	24
17	-133.545	13.93877	0.16403	12.31878	0.78911	12.00215	-1.29927	16.09862	703.7544	24
17.001	-127.741	13.89672	0.74565	11.59594	0.35594	12.57995	-1.25557	16.02025	703.7569	24
17	-121.938	13.89759	1.36233	10.87546	-0.05749	13.13841	-1.227	16.02125	703.7437	24
17.001	-116.126	13.87694	1.98635	10.10771	-0.47689	13.61035	-1.19491	16.01969	703.7752	24
17	-110.321	13.90343	2.72453	9.31014	-0.74257	14.02756	-1.22033	16.04736	703.7716	24
17	-104.516	13.95155	3.5075	8.51426	-0.9583	14.37037	-1.26706	16.09615	703.7667	24
17	-98.71	13.91913	4.3059	7.65512	-1.10395	14.53497	-1.30469	16.05118	703.7626	24
17.001	-92.9	13.87892	5.10844	6.79827	-1.18162	14.60684	-1.32969	16.00106	703.7441	24
17.001	-87.1	13.90277	5.94211	5.93897	-1.27305	14.67204	-1.34222	16.02873	703.7375	24
17	-81.29	13.92159	6.79042	5.09223	-1.29405	14.64824	-1.32696	16.05414	703.7454	24
17	-75.484	13.93185	7.65229	4.29659	-1.25361	14.53302	-1.28972	16.0756	703.7287	24
17	-69.679	13.92535	8.49916	3.54124	-1.10297	14.3056	-1.25855	16.07512	703.7393	24
17.001	-63.874	13.90371	9.31561	2.81357	-0.87964	13.97346	-1.24973	16.04767	703.7576	24
17	-58.062	13.91343	10.13354	2.14627	-0.59604	13.59462	-1.26333	16.05511	703.7444	24
17.001	-52.259	13.90839	10.89855	1.50525	-0.26136	13.10677	-1.29532	16.04255	703.756	24
17	-46.455	13.93614	11.63645	0.92237	0.14611	12.56762	-1.29999	16.07075	703.7615	24
17	-40.643	13.95383	12.29418	0.41194	0.64304	11.94116	-1.25529	16.07502	703.763	24
17.001	-34.839	13.9973	12.91701	0.08928	1.2292	11.27681	-1.18018	16.11162	703.7607	24
16.999	-29.036	13.94893	13.38638	-0.23682	1.85986	10.46978	-1.14122	16.04599	703.7688	24
17	-23.227	13.97513	13.85207	-0.52071	2.57098	9.68108	-1.12378	16.09863	703.7443	24
16.999	-17.422	13.95249	14.16784	-0.78723	3.25551	8.85531	-1.11742	16.04437	703.7642	24
17.001	-11.615	13.96877	14.44598	-0.95398	4.00742	7.99971	-1.14928	16.04772	703.7608	24
17	-5.809	13.97477	14.62951	-1.08882	4.78566	7.17307	-1.16339	16.04547	703.7714	24
17	0	13.98213	14.7543	-1.17311	5.58638	6.36722	-1.14876	16.06701	703.7572	24
17	5.809	13.98232	14.76467	-1.19195	6.4185	5.51871	-1.12968	16.06174	703.7591	24
17.001	11.615	13.94345	14.67333	-1.1691	7.26752	4.72282	-1.09478	16.03428	703.7498	24
16.999	17.422	13.9305	14.51039	-1.07951	8.09123	3.90784	-1.0736	16.02515	703.758	24
17	23.227	13.9378	14.27715	-0.92068	8.93192	3.13633	-1.09612	16.03114	703.7687	24
16.999	29.036	13.93515	13.94475	-0.70566	9.74033	2.39502	-1.13995	16.02928	703.7532	24
17.001	34.839	13.98763	13.57946	-0.43426	10.55442	1.73015	-1.16391	16.08938	703.7585	24
17	40.643	13.96695	13.06143	-0.08117	11.28301	1.03323	-1.15741	16.06012	703.7669	24
17	46.455	13.9406	12.46705	0.32906	11.95779	0.46429	-1.12741	16.03093	703.7735	24
17.001	52.259	13.96512	11.85024	0.92177	12.61694	-0.05999	-1.08158	16.0643	703.7854	24
17	58.062	13.91374	11.09836	1.50226	13.13687	-0.50918	-1.04794	16.01304	703.794	24
17.001	63.874	13.9519	10.36297	2.08375	13.67025	-0.92713	-1.08764	16.06741	703.785	24
17	69.679	13.95148	9.54808	2.72793	14.07383	-1.26236	-1.15221	16.06361	703.7748	24
17	75.484	13.94133	8.69331	3.50268	14.38235	-1.50839	-1.20242	16.05325	703.7631	24
17	81.29	13.8937	7.79339	4.23959	14.55187	-1.6705	-1.23258	15.98825	703.7524	24
17.001	87.1	13.95011	6.95475	5.05578	14.73178	-1.72263	-1.22891	16.03452	703.7567	24
17.001	92.9	13.96602	6.08529	5.87271	14.78713	-1.69641	-1.22229	16.04135	703.788	24
17	98.71	13.99278	5.24605	6.73665	14.77376	-1.57904	-1.22446	16.07593	703.7909	24
17	104.516	14.00739	4.43812	7.5805	14.66621	-1.4286	-1.21594	16.08776	703.8102	24
17	110.321	14.00563	3.62683	8.41681	14.4625	-1.28167	-1.23933	16.09325	703.8026	24
17.001	116.126	14.01463	2.84923	9.2594	14.17122	-1.04847	-1.25117	16.1072	703.7918	24
17	121.938	13.96068	2.1083	10.0371	13.73108	-0.74708	-1.24144	16.05262	703.7872	24
17.001	127.741	13.94669	1.40559	10.78937	13.25131	-0.40798	-1.20994	16.03695	703.7802	24
17	133.545	13.90068	0.94465	11.43636	12.71441	-0.24691	-1.18496	16.00046	703.7795	24
17	139.357	13.9434	0.47779	12.14115	12.14287	0.28146	-1.18812	16.04046	703.7711	24
17.001	145.161	13.93808	0.00125	12.74371	11.46101	0.81659	-1.20231	16.03834	703.7708	24
16.999	150.964	13.93022	-0.41959	13.28504	10.75557	1.58274	-1.16051	16.049	703.7607	24
17	156.773	13.94527	-0.69145	13.74281	9.99098	2.29167	-1.15925	16.06467	703.769	24
16.999	162.578	13.95798	-1.01614	14.13981	9.19334	3.03818	-1.17675	16.09842	703.7788	24
17.001	168.385	13.89546	-1.19035	14.35088	8.33602	3.79992	-1.19826	16.03215	703.7665	24
17	174.191	13.93937	-1.36398	14.59479	7.51228	4.63107	-1.22324	16.08401	703.7544	24
18.7	174.703	13.40137	-2.25908	14.96807	7.16848	4.17048	-1.52394	16.06807	703.7598	24
18.7	169.409	13.39771	-2.17378	14.7955	7.99661	3.37706	-1.48169	16.06379	703.783	24
18.701	164.118	13.36159	-1.94907	14.49735	8.79479	2.59559	-1.41311	16.01133	703.7834	24
18.699	158.826	13.3927	-1.72211	14.18483	9.62984	1.8335	-1.38411	16.04662	703.7669	24
18.699	153.527	13.41414	-1.45123	13.78554	10.42319	1.1161	-1.38711	16.06218	703.7666	24
18.699	148.236	13.45016	-1.06648	13.31386	11.18815	0.33772	-1.41496	16.08048	703.7588	24
18.701	142.94	13.44331	-0.65565	12.73847	11.90192	-0.23383	-1.44594	16.08289	703.7865	24
18.699	137.647	13.44627	-0.15708	12.10988	12.55288	-0.71694	-1.45782	16.07993	703.7914	24
18.702	132.353	13.43701	0.35367	11.41634	13.11382	-1.14639	-1.48515	16.06198	703.7816	24
18.699	127.059	13.44633	0.70027	10.73924	13.57398	-1.26731	-1.49735	16.05976	703.8125	24
18.7	121.766	13.42511	1.38437	9.96756	14.01849	-1.59412	-1.49668	16.03247	703.8165	24
18.7	116.466	13.4299	2.10557	9.17462	14.41969	-1.89961	-1.50665	16.04458	703.8212	24
18.7	111.173	13.4278	2.85117	8.34669	14.72394	-2.17457	-1.4803	16.04248	703.8202	24
18.699	105.88	13.44368	3.65648	7.52125	14.9558	-2.32773	-1.4393	16.05099	703.8258	24
18.699	100.589	13.43243	4.47721	6.67217	15.06717	-2.4268	-1.43994	16.01957	703.8055	24
18.699	95.294	13.435	5.30959	5.85267	15.13482	-2.54453	-1.46197	16.02408	703.8081	24
18.7	90	13.4209	6.17264	5.01762	15.11658	-2.5939	-1.50713	16.01141	703.8136	24
18.699	84.706	13.45108	7.04184	4.27165	15.08113	-2.65591	-1.53607	16.0689	703.8085	24
18.699	79.411	13.41812	7.88946	3.46438	14.89845	-2.59418	-1.51947	16.04177	703.8058	24
18.699	74.12	13.40342	8.73877	2.72476	14.64376	-2.41773	-1.4566	16.03777	703.8063	24
18.7	68.827	13.40892	9.57728	2.0271	14.31856	-2.15423	-1.38585	16.04673	703.8019	24
18.7	63.534	13.39547	10.36751	1.32929	13.89325	-1.8255	-1.31858	16.0261	703.8058	24
18.7	58.234	13.37563	11.11917	0.75228	13.38852	-1.43519	-1.27339	15.99799	703.7999	24
18.699	52.941	13.44891	11.88724	0.1138	12.8933	-1.00037	-1.3084	16.0742	703.8093	24
18.702	47.647	13.44695	12.53794	-0.35637	12.26394	-0.49291	-1.38298	16.06859	703.817	24
18.699	42.353	13.44263	13.12985	-0.75248	11.58333	0.06884	-1.43291	16.06336	703.8141	24
18.701	37.06	13.43703	13.63679	-1.10378	10.84415	0.66973	-1.4264	16.04941	703.8063	24
18.699	31.764	13.44139	14.08024	-1.41738	10.07761	1.38289	-1.40349	16.0279	703.8034	24
18.699	26.473	13.42236	14.42288	-1.65282	9.27948	2.07928	-1.37051	16.01891	703.8361	24
18.699	21.174	13.43714	14.7429	-1.84205	8.47504	2.80059	-1.31423	16.05573	703.8273	24
18.701	15.882	13.40098	14.91569	-1.99345	7.61001	3.56242	-1.30235	16.00649	703.846	24
18.7	10.591	13.40095	15.04281	-2.07169	6.78277	4.35223	-1.32023	16.00137	703.8566	24
18.7	5.297	13.4268	15.12222	-2.09595	5.97294	5.16556	-1.38665	16.02408	703.8541	24
18.7	0	13.43938	15.11134	-2.06575	5.14655	6.00176	-1.45453	16.03561	703.8481	24
18.7	-5.297	13.43988	15.00465	-1.98625	4.34323	6.79483	-1.45403	16.0259	703.8646	24
18.7	-10.591	13.5014	14.90429	-1.84096	3.59978	7.6633	-1.41886	16.09836	703.8722	24
18.701	-15.882	13.48198	14.64425	-1.69774	2.84911	8.49858	-1.38143	16.07978	703.8729	24
18.699	-21.174	13.45278	14.28367	-1.48048	2.15746	9.31255	-1.34475	16.05264	703.8727	24
18.699	-26.473	13.47278	13.90189	-1.19042	1.47735	10.13402	-1.34767	16.07674	703.8783	24
18.699	-31.764	13.42721	13.39147	-0.88035	0.83078	10.87223	-1.38997	16.0309	703.8774	24
18.701	-37.06	13.47052	12.8898	-0.60945	0.25988	11.63578	-1.47638	16.08719	703.8801	24
18.699	-42.353	13.43823	12.26098	-0.21909	-0.26462	12.29022	-1.57333	16.06998	703.8685	24
18.702	-47.647	13.40848	11.56773	0.24837	-0.71332	12.88533	-1.61329	16.04473	703.8712	24
18.699	-52.941	13.36842	10.83131	0.83181	-1.14155	13.41322	-1.59009	16.01885	703.8671	24
18.7	-58.234	13.38055	10.07305	1.45273	-1.46421	13.89507	-1.53573	16.03619	703.8713	24
18.7	-63.534	13.36665	9.26652	2.15035	-1.73585	14.2773	-1.50621	16.03032	703.871	24
18.7	-68.827	13.37958	8.44952	2.84566	-1.94648	14.59478	-1.5004	16.04372	703.872	24
18.699	-74.12	13.38163	7.60829	3.56239	-2.10955	14.83428	-1.5336	16.04559	703.8807	24
18.699	-79.411	13.40723	6.77646	4.35864	-2.17875	15.01009	-1.5729	16.07009	703.8794	24
18.699	-84.706	13.39163	5.92423	5.17239	-2.1775	15.06415	-1.62023	16.04574	703.8812	24
18.7	-90	13.40147	5.10272	6.03996	-2.0859	15.06331	-1.6558	16.04544	703.8933	24
18.699	-95.294	13.41921	4.30661	6.88319	-2.02393	15.01817	-1.65167	16.072	703.8811	24
18.699	-100.589	13.36756	3.49443	7.68706	-1.94824	14.82961	-1.58004	16.02556	703.8599	24
18.699	-105.88	13.37719	2.73076	8.51819	-1.76358	14.6166	-1.506	16.04192	703.8818	24
18.7	-111.173	13.4052	1.98244	9.34884	-1.55568	14.32638	-1.46367	16.06864	703.8783	24
18.7	-116.466	13.39937	1.25268	10.14731	-1.27665	13.92178	-1.44148	16.04937	703.8791	24
18.7	-121.766	13.41197	0.59137	10.92418	-0.93553	13.4642	-1.47499	16.07881	703.8744	24
18.699	-127.059	13.37341	-0.01078	11.61948	-0.5158	12.8738	-1.52338	16.03921	703.8676	24
18.702	-132.353	13.37855	-0.57227	12.31289	-0.08421	12.2682	-1.58024	16.05379	703.8691	24
18.699	-137.647	13.37357	-1.04418	12.93306	0.4287	11.58501	-1.63183	16.05681	703.8784	24
18.701	-142.94	13.36543	-1.46083	13.47785	1.00772	10.84899	-1.63183	16.0653	703.8824	24
18.699	-148.236	13.35279	-1.76172	13.93369	1.63574	10.06411	-1.57222	16.05677	703.8886	24
18.699	-153.527	13.3443	-2.05632	14.30776	2.32967	9.21598	-1.51385	16.03691	703.8813	24
18.699	-158.826	13.33895	-2.26685	14.61543	3.06272	8.35616	-1.48443	16.03694	703.8739	24
18.701	-164.118	13.3716	-2.3881	14.86101	3.83575	7.49997	-1.4853	16.06585	703.8692	24
18.7	-169.409	13.33848	-2.39664	14.95019	4.63978	6.60436	-1.51842	16.00498	703.881	24
18.7	-174.703	13.40084	-2.35099	15.06756	5.49504	5.85277	-1.55023	16.07146	703.8868	24
18.7	180	13.37022	-2.25438	15.00234	6.30682	5.02637	-1.55147	16.01088	703.887	24
20.4	180	12.75741	-3.18966	15.29548	5.93427	4.51432	-1.83961	15.97658	703.8849	24
20.399	-175.132	12.81648	-3.18912	15.38934	5.14556	5.36372	-1.84752	16.05702	703.8897	24
20.401	-170.268	12.78407	-3.26924	15.32393	4.32895	6.14604	-1.81041	16.03556	703.896	24
20.401	-165.409	12.79668	-3.23937	15.22535	3.52794	7.03769	-1.75178	16.07054	703.8898	24
20.4	-160.541	12.79725	-3.20177	15.05015	2.77121	7.88682	-1.74315	16.08189	703.8857	24
20.401	-155.674	12.75212	-3.0018	14.72362	2.0393	8.72343	-1.73233	16.02533	703.8861	24
20.401	-150.812	12.76511	-2.81729	14.39525	1.31995	9.56307	-1.80402	16.05258	703.8831	24
20.4	-145.942	12.76269	-2.55373	13.97553	0.68075	10.36657	-1.90446	16.04296	703.9029	24
20.399	-141.08	12.74258	-2.21088	13.44853	0.09693	11.11686	-1.95669	16.00991	703.9153	24
20.399	-136.217	12.77408	-1.80536	12.90401	-0.45922	11.85109	-1.9648	16.03228	703.9164	24
20.4	-131.354	12.82377	-1.35547	12.33227	-0.94624	12.56026	-1.89106	16.09526	703.8925	24
20.4	-126.485	12.83577	-0.77779	11.64938	-1.34485	13.14696	-1.81042	16.08774	703.8937	24
20.4	-121.62	12.82408	-0.18609	10.90472	-1.73923	13.66642	-1.75481	16.05132	703.8805	24
20.399	-116.754	12.81926	0.43785	10.13498	-2.06533	14.11874	-1.70342	16.04178	703.8804	24
20.399	-111.892	12.77411	1.14	9.32404	-2.37748	14.49203	-1.70668	16.00461	703.8938	24
20.4	-107.025	12.78951	1.88043	8.51953	-2.60895	14.84929	-1.75856	16.03642	703.9083	24
20.399	-102.166	12.8002	2.6645	7.7073	-2.77744	15.10359	-1.83925	16.04767	703.9148	24
20.399	-97.297	12.83542	3.45314	6.90282	-2.87484	15.29814	-1.93784	16.07313	703.9159	24
20.399	-92.432	12.83361	4.24823	6.0729	-2.93743	15.37821	-1.98374	16.05633	703.9251	24
20.399	-87.568	12.82102	5.04569	5.20783	-3.06274	15.41531	-1.96421	16.05197	703.9246	24
20.399	-82.703	12.81743	5.86876	4.39583	-3.07741	15.38126	-1.88966	16.05176	703.9233	24
20.399	-77.834	12.79067	6.70439	3.58688	-3.02841	15.25237	-1.81796	16.01993	703.9304	24
20.4	-72.975	12.77924	7.54132	2.82233	-2.93657	15.07047	-1.76694	16.01069	703.9274	24
20.399	-68.108	12.78407	8.37774	2.10454	-2.78036	14.82995	-1.757	16.00868	703.9315	24
20.399	-63.246	12.79162	9.19728	1.41415	-2.56584	14.52279	-1.7693	16.01231	703.9411	24
20.4	-58.38	12.82354	9.98793	0.74077	-2.28988	14.15212	-1.86193	16.00677	703.9441	24
20.4	-53.515	12.80645	10.77281	0.11746	-1.99406	13.68935	-1.89236	16.01089	703.9429	24
20.4	-48.646	12.80711	11.49452	-0.36427	-1.63464	13.14314	-1.94765	16.02361	703.936	24
20.399	-43.783	12.82974	12.16266	-0.88846	-1.17395	12.55355	-1.91164	16.01979	703.9244	24
20.399	-38.92	12.83938	12.78321	-1.2526	-0.68186	11.89889	-1.78781	16.01776	703.9364	24
20.4	-34.058	12.84502	13.34426	-1.62231	-0.15391	11.20374	-1.66574	16.01929	703.9318	24
20.401	-29.188	12.87351	13.8756	-1.85612	0.40734	10.4907	-1.60555	16.04554	703.9373	24
20.401	-24.326	12.88517	14.31902	-2.13971	1.03162	9.71958	-1.59317	16.05433	703.9344	24
20.4	-19.459	12.90524	14.70687	-2.4101	1.71514	8.92674	-1.59279	16.07392	703.941	24
20.401	-14.591	12.89736	14.98806	-2.5854	2.40899	8.09011	-1.64838	16.05568	703.952	24
20.401	-9.732	12.888	15.19168	-2.71296	3.14145	7.2376	-1.69313	16.03496	703.9523	24
20.399	-4.868	12.8825	15.34526	-2.87964	3.89493	6.40719	-1.75438	16.02967	703.942	24
20.4	0	12.86789	15.43133	-2.94991	4.67302	5.60824	-1.75095	16.02864	703.9384	24
20.399	4.868	12.89578	15.49298	-2.99311	5.51025	4.79928	-1.67458	16.0707	703.933	24
20.401	9.732	12.88552	15.43457	-2.96789	6.32974	4.00172	-1.57401	16.06469	703.927	24
20.401	14.591	12.89684	15.34596	-2.89268	7.15344	3.23112	-1.52514	16.08932	703.9129	24
20.4	19.459	12.88976	15.14106	-2.75567	7.98214	2.46189	-1.51777	16.07676	703.9377	24
20.401	24.326	12.88742	14.88094	-2.58465	8.79683	1.72641	-1.56522	16.06549	703.948	24
20.401	29.188	12.88672	14.5266	-2.31835	9.58143	0.96132	-1.61897	16.0439	703.9487	24
20.4	34.058	12.90979	14.12249	-2.03954	10.4029	0.31721	-1.67707	16.07346	703.9575	24
20.399	38.92	12.89281	13.65639	-1.72994	11.12022	-0.29479	-1.69117	16.0285	703.9597	24
20.399	43.783	12.84252	13.07052	-1.4019	11.79567	-0.9129	-1.67764	16.01075	703.9401	24
20.4	48.646	12.83023	12.45491	-1.01303	12.45203	-1.45011	-1.61294	16.00074	703.9233	24
20.4	53.515	12.82443	11.78887	-0.55304	13.06607	-1.92622	-1.5236	16.00707	703.9102	24
20.4	58.38	12.82383	11.07761	0.05622	13.61292	-2.35484	-1.49173	16.00971	703.9383	24
20.399	63.246	12.8018	10.30149	0.65507	14.07125	-2.71483	-1.548	15.99034	703.9539	24
20.399	68.108	12.82978	9.51848	1.31305	14.51404	-3.02823	-1.62729	16.01977	703.9687	24
20.4	72.975	12.81722	8.68412	1.97536	14.83596	-3.27783	-1.71998	16.0055	703.9591	24
20.399	77.834	12.86106	7.85984	2.70377	15.13777	-3.46192	-1.79601	16.05161	703.9497	24
20.399	82.703	12.85424	6.99896	3.47659	15.30313	-3.53035	-1.82475	16.02754	703.9597	24
20.399	87.568	12.83628	6.1475	4.17484	15.37312	-3.48549	-1.81866	15.98151	703.9566	24
20.399	92.432	12.87205	5.3191	4.96457	15.45822	-3.47934	-1.76698	16.01836	703.9478	24
20.399	97.297	12.85408	4.45671	5.79903	15.41403	-3.38683	-1.68772	16.00256	703.935	24
20.399	102.166	12.8923	3.66186	6.64289	15.38926	-3.33297	-1.65163	16.06743	703.9382	24
20.4	107.025	12.89006	2.84256	7.47782	15.2463	-3.24589	-1.67085	16.08088	703.9376	24
20.399	111.892	12.87332	2.07029	8.30161	14.99322	-3.04446	-1.72404	16.06149	703.9349	24
20.399	116.754	12.90467	1.34179	9.12967	14.72367	-2.78709	-1.75871	16.10662	703.9288	24
20.4	121.62	12.87301	0.62315	9.90334	14.31715	-2.47734	-1.78256	16.07302	703.9343	24
20.4	126.485	12.85218	-0.06779	10.66252	13.85415	-2.16529	-1.80514	16.05097	703.9337	24
20.4	131.354	12.84482	-0.68222	11.40122	13.34063	-1.80488	-1.79821	16.05419	703.9437	24
20.399	136.217	12.85354	-0.81841	11.99894	12.85154	-1.78088	-1.75663	16.06837	703.9312	24
20.399	141.08	12.81658	-1.27108	12.60147	12.18703	-1.27707	-1.71056	16.03157	703.9216	24
20.4	145.942	12.8194	-1.7113	13.20325	11.52041	-0.76359	-1.67839	16.0342	703.9212	24
20.401	150.812	12.80695	-2.09212	13.72672	10.78416	-0.11839	-1.60718	16.03243	703.9245	24
20.401	155.674	12.81453	-2.41208	14.19381	10.04211	0.62229	-1.58286	16.04681	703.9255	24
20.4	160.541	12.77414	-2.66863	14.54062	9.21967	1.33938	-1.60316	15.99277	703.9104	24
20.401	165.409	12.82757	-2.95517	14.93293	8.44601	2.12432	-1.65289	16.08691	703.9081	24
20.401	170.268	12.7662	-3.08013	15.09065	7.58737	2.88448	-1.75563	16.00439	703.9152	24
20.399	175.132	12.78372	-3.15954	15.25949	6.77835	3.6571	-1.81576	16.02214	703.915	24
0.141	45	16.0536	8.1128	7.94184	8.16453	7.78799	0.18379	16.02319	703.9203	24
4	128.563	16.03566	6.81078	8.94652	9.64241	6.14725	0.07208	16.02925	703.9095	24
4	77.134	15.9965	8.5136	7.25973	9.88653	5.85424	0.08069	15.99417	703.9084	24
3.999	25.715	16.02927	9.80594	6.15797	8.71014	6.9791	0.10142	16.02556	703.9137	24
3.999	-25.715	16.0009	9.66132	6.21738	6.99863	8.68709	0.10002	16.00053	703.891	24
4	-77.134	16.02556	8.22029	7.53002	6.07743	9.76346	0.08206	16.02491	703.8917	24
4	-128.563	16.01534	6.61542	9.12736	6.51378	9.2575	0.06705	16.01547	703.9046	24
4	180	16.02983	6.02264	9.83631	8.08648	7.64685	0.06818	16.03045	703.8993	24
8	180	15.73312	3.72036	11.59907	7.84405	7.21033	-0.15456	16.00542	703.9159	24
7.999	-152.3	15.74869	3.93807	11.22514	5.99891	9.10406	-0.19698	16.02446	703.9278	24
8	-124.619	15.79786	5.12304	9.97476	4.51535	10.78529	-0.16074	16.0789	703.9398	24
8	-96.914	15.77827	6.87901	8.14037	3.86187	11.57318	-0.15588	16.07028	703.9538	24
7.999	-69.219	15.78584	8.77218	6.33036	3.93494	11.41948	-0.19727	16.06603	703.9329	24
8.001	-41.54	15.78985	10.48807	4.79511	4.812	10.35429	-0.15136	16.07102	703.9179	24
7.999	-13.856	15.78503	11.53678	3.96674	6.40299	8.56498	-0.14071	16.05544	703.9025	24
7.999	13.856	15.7703	11.66642	3.89499	8.31912	6.67487	-0.12962	16.03693	703.9044	24
8.001	41.54	15.81445	10.89196	4.52496	10.2089	5.01119	-0.08898	16.10292	703.9167	24
7.999	69.219	15.76368	9.2815	5.8939	11.41463	3.87157	-0.14591	16.03214	703.9224	24
8	96.914	15.81552	7.39368	7.66548	11.81812	3.61288	-0.17571	16.07711	703.9234	24
8	124.619	15.72583	5.50262	9.53472	11.15039	4.1094	-0.16185	15.97782	703.9391	24
7.999	152.3	15.76841	4.15595	11.03811	9.75025	5.41492	-0.19359	16.03064	703.934	24
11.999	161.054	15.14918	1.67549	12.71389	9.36684	4.67714	-0.57116	16.05307	703.9218	24
11.999	142.105	15.19014	2.62121	11.58673	11.16208	3.09102	-0.56864	16.0704	703.9179	24
12	123.159	15.21893	4.09708	9.97987	12.51195	2.06419	-0.5648	16.08725	703.9303	24
11.999	104.208	15.17688	5.93922	8.01326	13.21037	1.4269	-0.57457	16.04921	703.9326	24
12	85.257	15.17354	7.91739	6.02377	13.26351	1.33101	-0.4889	16.05509	703.95	24
12	66.319	15.1779	9.91442	4.31539	12.66508	1.79199	-0.52739	16.07299	703.9461	24
12	47.367	15.22112	11.6306	2.86943	11.42717	2.88264	-0.47553	16.12486	703.9351	24
12	28.427	15.1998	12.75454	1.93773	9.67753	4.37956	-0.531	16.0961	703.9402	24
12.001	9.467	15.13848	13.22474	1.55989	7.66746	6.21282	-0.52645	16.02741	703.9468	24
12.001	-9.467	15.2156	13.14245	1.64117	5.733	8.16324	-0.49418	16.11238	703.9399	24
12	-28.427	15.13345	12.277	2.21081	3.94229	10.06886	-0.53672	16.03488	703.9447	24
12	-47.367	15.13365	10.89373	3.32762	2.56456	11.67148	-0.50129	16.04174	703.9471	24
12	-66.319	15.14407	9.09495	4.90115	1.74737	12.77427	-0.59624	16.06747	703.9473	24
12	-85.257	15.15016	7.14422	6.76066	1.50457	13.18625	-0.57671	16.06807	703.9753	24
11.999	-104.208	15.11474	5.18339	8.73037	1.71498	12.90767	-0.5874	16.03747	703.9693	24
12	-123.159	15.12858	3.4793	10.57526	2.42968	11.9874	-0.59102	16.04245	703.9726	24
11.999	-142.105	15.08305	2.16899	12.00854	3.71998	10.43967	-0.55055	15.99659	703.9977	24
11.999	-161.054	15.12775	1.5112	12.92974	5.4966	8.53125	-0.57227	16.05942	703.9961	24
16	180	14.2139	-0.8385	14.39064	6.8185	5.74228	-1.07158	16.06626	703.9912	24
16.001	-165.597	14.17717	-0.87345	14.24129	4.83944	7.65766	-1.08703	16.04028	704.0004	24
16	-151.2	14.20385	-0.42071	13.63105	3.02909	9.70858	-1.12748	16.0749	704.0017	24
16	-136.804	14.17931	0.45376	12.45615	1.53982	11.49073	-1.12928	16.04077	703.9854	24
16	-122.397	14.21738	1.77582	10.89324	0.46833	12.9464	-1.07687	16.05753	703.9924	24
16	-107.995	14.18722	3.39556	9.0359	-0.33949	13.93292	-1.08062	16.05901	703.9732	24
16	-93.603	14.18989	5.2998	7.07383	-0.64259	14.36952	-1.12359	16.0424	703.9869	24
15.999	-79.202	14.1799	7.26557	5.06346	-0.73944	14.33785	-1.1527	16.03908	704.0201	24
16	-64.799	14.18648	9.24514	3.28023	-0.3899	13.79879	-1.0999	16.05388	704.0032	24
16.001	-50.401	14.14691	11.0465	1.76067	0.36147	12.73327	-1.11913	16.00143	704.0229	24
16	-36.002	14.21544	12.59614	0.60343	1.56555	11.29277	-1.04156	16.04983	704.0322	24
16	-21.597	14.21722	13.70752	-0.11235	3.1278	9.46667	-0.98885	16.04331	704.0474	24
15.999	-7.198	14.23412	14.32653	-0.53201	4.89189	7.52419	-0.97878	16.03422	704.0487	24
15.999	7.198	14.2232	14.45995	-0.63755	6.81369	5.59875	-0.96531	16.03148	704.0596	24
16	21.597	14.22791	14.12075	-0.44686	8.78308	3.69117	-0.95373	16.05002	704.073	24
16	36.002	14.23178	13.26139	0.1291	10.65489	2.0491	-0.99688	16.04755	704.0723	24
16.001	50.401	14.24356	11.94259	1.22478	12.29362	0.59835	-0.94699	16.06789	704.0509	24
16	64.799	14.22422	10.21393	2.59344	13.53472	-0.43231	-0.96286	16.0571	704.0514	24
15.999	79.202	14.27074	8.26123	4.31918	14.32979	-1.03991	-1.06152	16.09737	704.0511	24
16	93.603	14.28405	6.2185	6.20995	14.57084	-1.1249	-1.0664	16.09445	704.0566	24
16	107.995	14.25062	4.28429	8.17546	14.27189	-0.78371	-1.07616	16.05416	704.0594	24
16	122.397	14.23821	2.48277	10.08894	13.49933	-0.22522	-1.09306	16.05101	704.0622	24
16	136.804	14.2338	1.10909	11.76979	12.28522	0.52003	-1.04023	16.05818	704.0758	24
16	151.2	14.20624	0.0737	13.12008	10.66603	2.04808	-1.03562	16.04432	704.0868	24
16.001	165.597	14.199	-0.52906	13.99159	8.80372	3.79351	-1.05494	16.03536	704.1035	24
19.999	168.387	12.95843	-2.78983	14.98245	7.99362	2.76414	-1.66592	16.06087	704.1041	24
19.999	156.774	12.936	-2.22542	14.19088	9.87035	1.00309	-1.52172	16.01252	704.1048	24
19.999	145.162	12.92677	-1.4174	13.02785	11.59129	-0.61589	-1.60396	15.98334	704.1246	24
20	133.551	12.94713	-0.61935	11.62108	13.02639	-1.4906	-1.70632	15.99743	704.1133	24
20	121.934	13.00585	0.79747	9.95247	14.21879	-2.22283	-1.71019	16.05456	704.1198	24
20	110.324	12.99331	2.49305	8.05882	14.98874	-2.88085	-1.63298	16.04467	704.1167	24
20	98.713	12.98323	4.38638	6.10442	15.31397	-3.14246	-1.61927	15.99508	704.1106	24
20.001	87.097	12.97103	6.37002	4.20866	15.29641	-3.26482	-1.74428	15.99184	704.1072	24
20	75.485	12.96606	8.3628	2.45724	14.93244	-3.16258	-1.70182	16.03206	704.1039	24
19.999	63.871	13.01004	10.31816	0.88174	14.16563	-2.55442	-1.51644	16.09931	704.1001	24
20.001	52.258	12.9893	11.99575	-0.51442	12.91432	-1.59303	-1.49226	16.05906	704.1179	24
19.999	40.647	13.00002	13.42673	-1.44008	11.36841	-0.3446	-1.6371	16.05654	704.1147	24
20	29.033	13.01123	14.49562	-2.16187	9.59469	1.2293	-1.56315	16.06271	704.1199	24
20.001	17.416	13.02026	15.15946	-2.6147	7.70047	2.91686	-1.47889	16.07815	704.118	24
20	5.81	13.01126	15.37731	-2.76444	5.76265	4.755	-1.5807	16.05242	704.1262	24
20	-5.81	13.05823	15.28742	-2.62403	3.90845	6.67355	-1.67009	16.09008	704.125	24
20.001	-17.416	13.00709	14.72417	-2.26359	2.16094	8.59842	-1.54733	16.02192	704.1262	24
20	-29.033	12.98924	13.80159	-1.65195	0.61374	10.46268	-1.54017	16.02022	704.1308	24
19.999	-40.647	12.96509	12.50823	-0.92422	-0.66265	12.11007	-1.75924	16.00334	704.1414	24
20.001	-52.258	12.93356	10.92297	0.19567	-1.68832	13.50143	-1.82063	16.01871	704.1284	24
19.999	-63.871	12.97508	9.13826	1.69168	-2.39837	14.56394	-1.70622	16.08122	704.1203	24
20	-75.485	12.93015	7.16219	3.35654	-2.77479	15.10788	-1.73579	16.02894	704.1478	24
20.001	-87.097	12.94856	5.21913	5.23958	-2.83942	15.33051	-1.88105	16.04872	704.1193	24
20	-98.713	12.92447	3.34346	7.18997	-2.65691	15.15181	-1.84368	16.03197	704.1187	24
20	-110.324	12.94892	1.54524	9.13602	-2.24403	14.59328	-1.67046	16.05816	704.1404	24
20	-121.934	12.9688	-0.03187	10.96397	-1.53202	13.60081	-1.69051	16.07388	704.1497	24
20	-133.551	12.91963	-1.36107	12.55345	-0.53525	12.21231	-1.84739	16.06339	704.141	24
19.999	-145.162	12.91607	-2.25935	13.85583	0.76553	10.53194	-1.83991	16.06553	704.1336	24
19.999	-156.774	12.91463	-2.84075	14.74575	2.35497	8.61024	-1.66681	16.06294	704.1492	24
19.999	-168.387	12.94164	-3.03253	15.20968	4.13789	6.58966	-1.72129	16.05343	704.1522	24
20	180	12.98308	-2.95642	15.30768	6.06733	4.68319	-1.77582	16.07973	704.159	24
