FileType=PCF										
NHL=14										
Date=08/28/17	14:39:54									
Facility=APH										
Serial=17261-2										
Customer=Makani Google										
NP=6										
Mach=0.185000										
Calibration=1:1										
CalPts=490										
TstPts=95										
PortNumbering=AP Standard										
Units=Torr C m/s kg/m^3 deg mm 										
Theta[deg]	Phi[deg]	P1[Torr]	P2[Torr]	P3[Torr]	P4[Torr]	P5[Torr]	P6[Torr]	Pt[Torr]	"Po[Abs,Torr]"	To[C]
0	0	16.57984	8.77815	8.54716	8.671	8.64289	0.19328	16.56981	708.424	24
1.691	128.401	16.58562	8.23625	9.04761	9.29562	7.98308	0.18445	16.57602	708.4269	24
1.692	77.194	16.57349	8.9429	8.31962	9.4602	7.82696	0.17897	16.56569	708.4199	24
1.699	26.182	16.57514	9.49148	7.78066	8.99464	8.27494	0.18026	16.56692	708.4336	24
1.699	-26.182	16.56992	9.50984	7.76653	8.27653	8.98479	0.18832	16.56185	708.4304	24
1.692	-77.194	16.57785	8.92176	8.3294	7.83951	9.44046	0.17463	16.56923	708.431	24
1.691	-128.401	16.59592	8.21563	9.08569	7.98222	9.29211	0.1786	16.58715	708.4305	24
1.7	180	16.59455	7.92059	9.38212	8.62936	8.63663	0.185	16.58514	708.4335	24
3.4	180	16.60118	6.99943	10.22854	8.58836	8.56182	0.13106	16.60335	708.4316	24
3.388	-152.325	16.59694	7.16984	10.03855	7.80671	9.35728	0.13872	16.59821	708.4343	24
3.397	-124.529	16.5934	7.6748	9.47537	7.16652	10.00081	0.12882	16.59579	708.4336	24
3.399	-96.763	16.57816	8.4245	8.67476	6.90857	10.29918	0.12808	16.58121	708.4355	24
3.394	-69.283	16.56554	9.20869	7.91671	7.02442	10.17215	0.11886	16.56923	708.4365	24
3.4	-41.398	16.55187	9.90605	7.22168	7.41901	9.70445	0.12607	16.55832	708.439	24
3.401	-14.021	16.54082	10.32256	6.83347	8.15321	8.94663	0.12712	16.5503	708.4414	24
3.401	14.021	16.54296	10.33569	6.82614	8.93727	8.15514	0.1304	16.55223	708.4443	24
3.4	41.398	16.56118	9.96248	7.15344	9.70508	7.42696	0.12123	16.56997	708.4465	24
3.394	69.283	16.57264	9.28342	7.79716	10.20107	6.97017	0.1098	16.58048	708.4473	24
3.399	96.763	16.58921	8.49945	8.60023	10.32757	6.89902	0.12309	16.59496	708.45	24
3.397	124.529	16.59721	7.76878	9.385	10.02929	7.14231	0.13623	16.60144	708.4524	24
3.388	152.325	16.59096	7.22103	9.97621	9.39151	7.73427	0.12676	16.59181	708.4563	24
5.099	161.165	16.561	6.23263	10.85183	9.33889	7.56395	0.06902	16.61145	708.4565	24
5.109	142.013	16.5583	6.58625	10.40077	10.13102	6.79748	0.05902	16.61256	708.4524	24
5.095	123.033	16.54369	7.21237	9.70292	10.6931	6.2848	0.0457	16.60002	708.449	24
5.105	104.191	16.53344	7.9508	8.90726	11.03974	6.02636	0.05534	16.59194	708.4451	24
5.093	85.207	16.52987	8.77584	8.06291	11.09384	5.97987	0.04346	16.59135	708.4482	24
5.104	66.29	16.5165	9.60835	7.24954	10.8774	6.11123	0.04274	16.5828	708.4499	24
5.094	47.331	16.4989	10.31816	6.566	10.37916	6.51798	0.05024	16.56607	708.4515	24
5.089	28.397	16.48835	10.84508	6.10528	9.67898	7.15186	0.03581	16.5553	708.4537	24
5.096	9.576	16.47972	11.10757	5.9065	8.84627	7.96195	0.02708	16.5457	708.4557	24
5.096	-9.576	16.47722	11.08234	5.93137	7.99249	8.79015	0.03905	16.54083	708.4585	24
5.089	-28.397	16.47866	10.79669	6.16602	7.18463	9.64232	0.05721	16.54083	708.4493	24
5.094	-47.331	16.49748	10.24754	6.6894	6.55989	10.36292	0.03943	16.55569	708.4548	24
5.104	-66.29	16.50699	9.51277	7.36046	6.16654	10.84835	0.02534	16.56265	708.4543	24
5.093	-85.207	16.52558	8.6889	8.16749	6.02999	11.07025	0.04332	16.57826	708.4508	24
5.105	-104.191	16.54792	7.89495	8.98325	6.03557	11.02827	0.02816	16.60039	708.4522	24
5.095	-123.033	16.55511	7.12037	9.79754	6.30242	10.68391	0.0505	16.60801	708.4536	24
5.109	-142.013	16.56809	6.51066	10.48216	6.84536	10.08733	0.05883	16.62073	708.453	24
5.099	-161.165	16.56511	6.19242	10.91404	7.63967	9.25277	0.0473	16.61497	708.4481	24
5.1	180	16.56971	6.09156	11.02677	8.49114	8.42873	0.05785	16.62156	708.4454	24
6.8	180	16.468	5.16657	11.78394	8.33966	8.2302	-0.06789	16.62379	708.4404	24
6.796	-166.229	16.46476	5.20438	11.70537	7.49514	9.03294	-0.06672	16.62031	708.439	24
6.808	-152.311	16.46666	5.37573	11.41603	6.68274	9.86367	-0.08838	16.62743	708.439	24
6.795	-138.383	16.45455	5.79677	10.89516	5.98967	10.6319	-0.06295	16.61686	708.439	24
6.792	-124.591	16.45501	6.4344	10.2317	5.54253	11.20384	-0.05654	16.61703	708.4365	24
6.787	-110.754	16.44806	7.13413	9.44728	5.22501	11.61073	-0.09457	16.6107	708.4362	24
6.8	-96.985	16.44371	7.92455	8.64464	5.10751	11.82382	-0.09511	16.60537	708.4365	24
6.8	-83.015	16.41587	8.71709	7.78857	5.07003	11.80831	-0.06735	16.58062	708.4404	24
6.787	-69.246	16.40056	9.52615	7.03727	5.26387	11.57605	-0.07885	16.56333	708.4456	24
6.792	-55.409	16.38651	10.27282	6.36087	5.58752	11.16952	-0.08163	16.5546	708.4522	24
6.795	-41.617	16.36345	10.91337	5.78435	6.06862	10.56762	-0.06369	16.53491	708.4539	24
6.808	-27.689	16.3543	11.42583	5.34231	6.68957	9.85368	-0.04931	16.5327	708.4587	24
6.796	-13.771	16.34042	11.76054	4.99257	7.40423	9.03423	-0.07501	16.525	708.46	24
6.8	0	16.34421	11.87599	4.9382	8.2678	8.20976	-0.07817	16.52932	708.4568	24
6.796	13.771	16.36074	11.80947	5.0126	9.08592	7.44469	-0.06876	16.54743	708.4542	24
6.808	27.689	16.36368	11.51896	5.21524	9.90683	6.66256	-0.0749	16.55367	708.4522	24
6.795	41.617	16.37365	11.03672	5.6008	10.63265	5.96963	-0.08591	16.56455	708.4526	24
6.792	55.409	16.38425	10.39911	6.18655	11.20526	5.47985	-0.07353	16.57156	708.45	24
6.787	69.246	16.40231	9.64335	6.89802	11.60218	5.16094	-0.07373	16.58583	708.4497	24
6.8	83.015	16.41426	8.8433	7.67291	11.83047	5.01115	-0.06696	16.59496	708.4585	24
6.8	96.985	16.42437	8.03468	8.51063	11.83872	5.05782	-0.04833	16.59863	708.462	24
6.787	110.754	16.43765	7.25975	9.32903	11.64602	5.19501	-0.04323	16.60868	708.4612	24
6.792	124.591	16.44182	6.53995	10.11253	11.27532	5.48303	-0.06069	16.60976	708.4616	24
6.795	138.383	16.44292	5.90834	10.79221	10.71932	5.94923	-0.04041	16.60852	708.458	24
6.808	152.311	16.46027	5.49088	11.32561	10.01923	6.61741	-0.04078	16.62325	708.4597	24
6.796	166.229	16.46022	5.21983	11.66126	9.1906	7.3994	-0.04953	16.62045	708.4577	24
8.491	168.704	16.29666	4.27021	12.38319	8.99554	7.20856	-0.20362	16.6204	708.4547	24
8.502	157.493	16.29725	4.42147	12.12354	9.84308	6.37191	-0.18795	16.63097	708.4497	24
8.494	146.194	16.28614	4.78642	11.66838	10.62123	5.63151	-0.17499	16.62233	708.4466	24
8.495	135.039	16.28096	5.30024	11.07955	11.29565	5.063	-0.15485	16.61944	708.447	24
8.487	123.723	16.27839	5.95016	10.36475	11.83627	4.61703	-0.1831	16.61996	708.4497	24
8.492	112.575	16.26744	6.65985	9.56644	12.25006	4.28613	-0.16452	16.61606	708.4584	24
8.51	101.22	16.25505	7.43606	8.72815	12.50963	4.08997	-0.15117	16.61154	708.4558	24
8.5	90	16.23467	8.23764	7.88087	12.56459	4.02218	-0.18188	16.59404	708.4519	24
8.51	78.78	16.22252	9.07723	7.05314	12.4714	4.05959	-0.20784	16.58866	708.4514	24
8.492	67.425	16.21309	9.90059	6.2849	12.18116	4.28866	-0.20322	16.57683	708.4556	24
8.487	56.277	16.20871	10.65038	5.58402	11.76914	4.60877	-0.20713	16.57796	708.4551	24
8.495	44.961	16.19647	11.3357	4.95085	11.15274	5.07727	-0.2436	16.56806	708.4485	24
8.494	33.806	16.19517	11.884	4.5146	10.44266	5.73359	-0.23952	16.56378	708.448	24
8.502	22.507	16.1851	12.29693	4.1777	9.6505	6.44933	-0.22359	16.55821	708.4536	24
8.491	11.296	16.17791	12.5197	4.02669	8.8162	7.23069	-0.19759	16.54442	708.4512	24
8.5	0	16.15639	12.56744	3.98066	7.98326	8.02715	-0.22369	16.52027	708.4514	24
8.491	-11.296	16.16065	12.46296	4.06037	7.17636	8.87196	-0.22537	16.52505	708.4514	24
8.502	-22.507	16.15644	12.20669	4.2754	6.41016	9.70453	-0.20523	16.52411	708.4512	24
8.494	-33.806	16.15753	11.76226	4.63636	5.74224	10.46955	-0.16465	16.51676	708.4578	24
8.495	-44.961	16.18706	11.21367	5.11628	5.1694	11.16613	-0.2119	16.54297	708.4675	24
8.487	-56.277	16.20517	10.50775	5.70454	4.6388	11.74157	-0.22073	16.55526	708.4697	24
8.492	-67.425	16.23918	9.77577	6.41523	4.36323	12.17472	-0.21034	16.58517	708.4679	24
8.51	-78.78	16.24615	8.93786	7.19231	4.14799	12.45935	-0.18758	16.59113	708.4658	24
8.5	-90	16.26076	8.1098	8.01705	4.08384	12.5564	-0.23557	16.6033	708.467	24
8.51	-101.22	16.26926	7.30673	8.85224	4.14449	12.46331	-0.23982	16.61275	708.4685	24
8.492	-112.575	16.27737	6.51915	9.6931	4.32993	12.18283	-0.22336	16.61692	708.4662	24
8.487	-123.723	16.2818	5.81794	10.47404	4.66709	11.75594	-0.20038	16.61899	708.4729	24
8.495	-135.039	16.29298	5.20254	11.18574	5.20332	11.18438	-0.21813	16.6277	708.4724	24
8.494	-146.194	16.30268	4.75703	11.74929	5.83423	10.50103	-0.2243	16.6297	708.4702	24
8.502	-157.493	16.30057	4.43899	12.18423	6.53892	9.71657	-0.21709	16.62628	708.4697	24
8.491	-168.704	16.31138	4.26767	12.42448	7.32806	8.88406	-0.19684	16.63485	708.4714	24
8.5	180	16.29828	4.17148	12.50159	8.13207	8.01691	-0.21031	16.62641	708.4674	24
10.2	180	16.07445	3.19159	13.17633	7.90416	7.78783	-0.36763	16.63435	708.4636	24
10.191	-170.497	16.07051	3.27026	13.1083	7.0839	8.64831	-0.35725	16.62731	708.464	24
10.21	-161.034	16.06972	3.38803	12.92522	6.28032	9.50745	-0.37544	16.63685	708.4641	24
10.194	-151.526	16.06265	3.64613	12.54668	5.53688	10.32306	-0.39176	16.63031	708.4575	24
10.19	-142.105	16.06588	4.02806	12.0481	4.88265	11.07577	-0.38779	16.63349	708.4612	24
10.215	-132.646	16.05464	4.52056	11.42828	4.26959	11.7574	-0.38294	16.63066	708.4657	24
10.203	-123.092	16.0464	5.15536	10.69875	3.72906	12.32801	-0.35663	16.63143	708.4673	24
10.192	-113.678	16.04311	5.86176	9.90552	3.43182	12.74069	-0.39599	16.62448	708.4689	24
10.208	-104.249	16.03696	6.63267	9.05857	3.2286	13.03775	-0.40887	16.6194	708.4718	24
10.21	-94.801	16.03519	7.42589	8.23484	3.13081	13.1859	-0.41447	16.61848	708.4734	24
10.21	-85.199	16.02561	8.28863	7.37209	3.13581	13.1881	-0.37462	16.6107	708.4763	24
10.208	-75.751	16.01818	9.13348	6.56259	3.24657	13.04118	-0.34543	16.60555	708.4724	24
10.192	-66.322	15.99594	9.93172	5.80746	3.45981	12.7409	-0.37858	16.58321	708.4686	24
10.203	-56.908	15.96589	10.71201	5.04561	3.70216	12.32607	-0.38479	16.57258	708.4641	24
10.215	-47.354	15.94526	11.42921	4.41785	4.14443	11.75549	-0.38254	16.5587	708.4644	24
10.19	-37.895	15.91643	12.00617	3.8891	4.68388	11.07635	-0.34087	16.52848	708.4677	24
10.194	-28.474	15.9003	12.51181	3.46226	5.35806	10.3145	-0.32609	16.5161	708.4723	24
10.21	-18.966	15.89402	12.90148	3.17937	6.12007	9.48924	-0.37062	16.51398	708.4761	24
10.191	-9.503	15.89769	13.10928	3.0454	6.91846	8.63489	-0.37627	16.508	708.4761	24
10.2	0	15.90223	13.20948	2.98691	7.73411	7.7867	-0.38853	16.51497	708.4751	24
10.191	9.503	15.92423	13.20879	2.94671	8.56331	6.98174	-0.34962	16.55103	708.4793	24
10.21	18.966	15.9231	13.00226	3.11574	9.42407	6.16732	-0.3732	16.55017	708.48	24
10.194	28.474	15.92916	12.65659	3.34958	10.22734	5.42599	-0.41987	16.55508	708.48	24
10.19	37.895	15.93389	12.18545	3.75547	11.00328	4.71721	-0.41591	16.55999	708.4861	24
10.215	47.354	15.93062	11.60369	4.21277	11.69505	4.13259	-0.40546	16.56367	708.49	24
10.203	56.908	15.94854	10.88923	4.90903	12.26553	3.74955	-0.36078	16.56505	708.4893	24
10.192	66.322	15.95248	10.12289	5.60607	12.70648	3.40489	-0.36574	16.5631	708.4895	24
10.208	75.751	15.9659	9.31058	6.37186	13.0203	3.17356	-0.35999	16.57507	708.4878	24
10.21	85.199	15.97965	8.4732	7.18946	13.18644	3.08	-0.35532	16.5837	708.4893	24
10.21	94.801	16.00397	7.63611	8.05342	13.21885	3.08465	-0.30882	16.60439	708.4917	24
10.208	104.249	16.00859	6.8244	8.8978	13.08086	3.18942	-0.28523	16.60413	708.4934	24
10.192	113.678	16.01954	6.04579	9.72782	12.79916	3.38713	-0.31621	16.60703	708.4923	24
10.203	123.092	16.03026	5.3359	10.53057	12.38547	3.72405	-0.33914	16.61147	708.4917	24
10.215	132.646	16.03894	4.68935	11.2742	11.83244	4.16337	-0.33031	16.61417	708.4861	24
10.19	142.105	16.0514	4.13201	11.91356	11.17022	4.68206	-0.31681	16.62083	708.4824	24
10.194	151.526	16.05612	3.70064	12.44085	10.43117	5.31973	-0.32762	16.62391	708.4839	24
10.21	161.034	16.06057	3.45293	12.83078	9.60498	6.15431	-0.3401	16.62213	708.48	24
10.191	170.497	16.0665	3.27382	13.07205	8.74995	6.96415	-0.37329	16.62511	708.4771	24
11.899	171.783	15.78543	2.32374	13.69716	8.5318	6.69119	-0.55333	16.63373	708.4844	24
11.89	163.61	15.77997	2.44274	13.48983	9.38691	5.86776	-0.52537	16.63298	708.4932	24
11.889	155.445	15.77151	2.67167	13.149	10.21721	5.09072	-0.50241	16.62703	708.4854	24
11.909	147.299	15.75685	2.99887	12.69278	10.9656	4.33387	-0.49355	16.62208	708.4822	24
11.902	139.148	15.75535	3.41684	12.12946	11.70167	3.74415	-0.50094	16.62802	708.4932	24
11.894	130.867	15.75174	4.03303	11.44283	12.34753	3.26698	-0.50587	16.6237	708.5098	24
11.897	122.732	15.7351	4.67902	10.68668	12.86976	2.85579	-0.50974	16.60976	708.5017	24
11.903	114.597	15.72338	5.38226	9.89797	13.29318	2.51206	-0.49138	16.61039	708.4941	24
11.893	106.346	15.72025	6.16946	9.05251	13.59827	2.30808	-0.45571	16.61017	708.497	24
11.892	98.155	15.70351	6.96957	8.18626	13.77405	2.15447	-0.46865	16.60184	708.4922	24
11.9	90	15.69708	7.80624	7.32886	13.82744	2.0971	-0.52172	16.60166	708.4918	24
11.892	81.845	15.68691	8.64429	6.5018	13.74134	2.16039	-0.54482	16.59283	708.4908	24
11.893	73.654	15.67149	9.47943	5.68788	13.53284	2.28963	-0.54633	16.58437	708.488	24
11.903	65.403	15.66121	10.30022	4.9331	13.18648	2.56585	-0.5482	16.57421	708.4839	24
11.897	57.268	15.64036	11.06736	4.21865	12.72819	2.86403	-0.54113	16.56248	708.4772	24
11.894	49.133	15.62224	11.75814	3.5787	12.16734	3.27728	-0.59083	16.55134	708.4709	24
11.902	40.852	15.61632	12.38934	3.07074	11.50944	3.76662	-0.60952	16.55191	708.4689	24
11.909	32.701	15.61819	12.91219	2.66316	10.7698	4.41449	-0.60687	16.5492	708.473	24
11.889	24.555	15.59914	13.31164	2.35274	9.96031	5.12905	-0.60513	16.52958	708.4687	24
11.89	16.39	15.60171	13.61825	2.09697	9.12988	5.88812	-0.55258	16.53767	708.4638	24
11.899	8.217	15.59494	13.79407	1.9826	8.26402	6.69965	-0.53788	16.52914	708.4675	24
11.9	0	15.59578	13.83824	1.97988	7.43217	7.53219	-0.56977	16.53063	708.4719	24
11.899	-8.217	15.55967	13.72336	2.03541	6.59951	8.36021	-0.56107	16.49293	708.4764	24
11.89	-16.39	15.56842	13.51776	2.20596	5.82855	9.20745	-0.55695	16.49758	708.475	24
11.889	-24.555	15.56988	13.19792	2.4101	5.06671	10.0497	-0.5441	16.50193	708.4758	24
11.909	-32.701	15.57559	12.78874	2.70175	4.32492	10.84738	-0.51177	16.51897	708.4749	24
11.902	-40.852	15.60346	12.25608	3.15132	3.75449	11.59687	-0.55099	16.54718	708.4718	24
11.894	-49.133	15.63864	11.60658	3.72437	3.23195	12.26974	-0.56915	16.57153	708.473	24
11.897	-57.268	15.66732	10.87623	4.37929	2.82713	12.81698	-0.56281	16.5856	708.4745	24
11.903	-65.403	15.70175	10.09347	5.10391	2.53782	13.25942	-0.5709	16.60636	708.4714	24
11.893	-73.654	15.71835	9.2655	5.87312	2.35096	13.56698	-0.53678	16.60909	708.4738	24
11.892	-81.845	15.72176	8.4143	6.65993	2.19202	13.74898	-0.54782	16.60893	708.477	24
11.9	-90	15.72823	7.56957	7.55083	2.15526	13.81336	-0.60929	16.61449	708.4855	24
11.892	-98.155	15.72978	6.74687	8.39839	2.1916	13.74469	-0.60892	16.61457	708.4944	24
11.893	-106.346	15.73692	5.94628	9.24576	2.36023	13.55364	-0.60497	16.61945	708.5046	24
11.903	-114.597	15.73816	5.17453	10.08103	2.52741	13.23984	-0.58333	16.62149	708.51	24
11.897	-122.732	15.75182	4.50379	10.8677	2.85389	12.81992	-0.54772	16.63158	708.5	24
11.894	-130.867	15.74914	3.84826	11.61245	3.33595	12.2639	-0.57039	16.62853	708.4961	24
11.902	-139.148	15.75052	3.30406	12.2791	3.89464	11.59103	-0.58319	16.6267	708.489	24
11.909	-147.299	15.76089	2.92375	12.80861	4.54215	10.85928	-0.58602	16.63043	708.4888	24
11.889	-155.445	15.76707	2.63089	13.22894	5.252	10.06191	-0.58202	16.62611	708.4871	24
11.89	-163.61	15.77518	2.43855	13.54579	6.00828	9.24018	-0.55565	16.62895	708.489	24
11.899	-171.783	15.78166	2.33618	13.72254	6.81758	8.39348	-0.53106	16.62972	708.4856	24
11.9	180	15.77615	2.24929	13.77704	7.63275	7.52877	-0.55228	16.62677	708.4893	24
13.6	180	15.42353	1.31076	14.3311	7.36871	7.18773	-0.76389	16.62721	708.4893	24
13.608	-172.853	15.42596	1.37536	14.29415	6.54626	8.03906	-0.75106	16.62934	708.4805	24
13.611	-165.583	15.41836	1.44831	14.14709	5.69917	8.90382	-0.75681	16.63591	708.4775	24
13.601	-158.353	15.40375	1.62523	13.86284	4.91829	9.74761	-0.80417	16.62835	708.48	24
13.609	-151.21	15.39194	1.85252	13.48729	4.19297	10.55255	-0.80723	16.62795	708.4867	24
13.611	-143.999	15.38565	2.17661	13.01716	3.51024	11.3461	-0.8011	16.62896	708.48	24
13.601	-136.825	15.37316	2.56744	12.43184	2.88656	12.05427	-0.80476	16.62425	708.4815	24
13.596	-129.64	15.38531	3.12437	11.76046	2.40183	12.70065	-0.7897	16.63262	708.4793	24
13.611	-122.431	15.38178	3.76679	11.0101	1.9704	13.25445	-0.76794	16.63193	708.4802	24
13.604	-115.211	15.38426	4.4613	10.21389	1.6713	13.69213	-0.79646	16.63392	708.4839	24
13.595	-108.042	15.38346	5.21822	9.38003	1.47958	14.01727	-0.81014	16.6284	708.4832	24
13.607	-100.793	15.37301	5.99248	8.50242	1.28623	14.25016	-0.8238	16.62639	708.4907	24
13.601	-93.617	15.36367	6.78052	7.6492	1.16768	14.36325	-0.8462	16.62184	708.4955	24
13.601	-86.383	15.36641	7.63506	6.82534	1.21867	14.36837	-0.81869	16.62055	708.4915	24
13.607	-79.207	15.35109	8.48227	5.98509	1.241	14.26897	-0.77313	16.61695	708.4959	24
13.595	-71.958	15.34227	9.33234	5.14743	1.4302	14.03778	-0.77739	16.60444	708.5015	24
13.604	-64.789	15.33682	10.16	4.42496	1.67266	13.72369	-0.77603	16.60892	708.5049	24
13.611	-57.569	15.30607	10.95543	3.72386	1.96585	13.26987	-0.76468	16.59114	708.5078	24
13.596	-50.36	15.2793	11.68872	3.0711	2.37154	12.71706	-0.76127	16.57292	708.511	24
13.601	-43.175	15.25001	12.35623	2.50936	2.82927	12.09957	-0.77158	16.55769	708.4993	24
13.611	-36.001	15.22103	12.93564	2.04215	3.3676	11.3934	-0.73863	16.53627	708.4885	24
13.609	-28.79	15.20218	13.42802	1.71953	3.99746	10.60405	-0.74327	16.51004	708.4868	24
13.601	-21.647	15.18478	13.80821	1.40335	4.71377	9.78889	-0.76958	16.49375	708.4973	24
13.611	-14.417	15.18632	14.09418	1.22672	5.47354	8.95564	-0.7493	16.49671	708.4944	24
13.608	-7.147	15.1827	14.27664	1.07637	6.28082	8.08169	-0.75507	16.49468	708.4878	24
13.6	0	15.22342	14.37615	1.03244	7.10792	7.25965	-0.77243	16.53379	708.4939	24
13.608	7.147	15.21516	14.34585	1.03313	7.92825	6.4258	-0.76546	16.52635	708.4932	24
13.611	14.417	15.21338	14.19633	1.10956	8.79526	5.56119	-0.76679	16.52781	708.4946	24
13.601	21.647	15.21823	13.93629	1.31609	9.64142	4.80394	-0.81408	16.52888	708.4999	24
13.609	28.79	15.22004	13.57615	1.57923	10.45193	4.08334	-0.82216	16.532	708.4941	24
13.611	36.001	15.21537	13.09765	1.9242	11.2371	3.35721	-0.81524	16.52825	708.4946	24
13.601	43.175	15.2311	12.54328	2.36767	11.94562	2.84758	-0.81787	16.53613	708.4943	24
13.596	50.36	15.24327	11.9224	2.88639	12.60401	2.38745	-0.80728	16.54309	708.4968	24
13.611	57.569	15.26625	11.22257	3.47872	13.16539	2.00439	-0.75887	16.56228	708.4988	24
13.604	64.789	15.28947	10.45486	4.19004	13.61737	1.67817	-0.7617	16.57727	708.4969	24
13.595	71.958	15.29505	9.64386	4.93071	13.96761	1.42798	-0.76657	16.57777	708.4972	24
13.607	79.207	15.31054	8.80668	5.73035	14.22684	1.23975	-0.75036	16.59286	708.4943	24
13.601	86.383	15.31639	7.94466	6.55608	14.34888	1.15991	-0.7344	16.58929	708.4936	24
13.601	93.617	15.32261	7.08897	7.40812	14.36284	1.15079	-0.70249	16.58898	708.4953	24
13.607	100.793	15.33039	6.26304	8.26631	14.27935	1.23002	-0.66021	16.59998	708.495	24
13.595	108.042	15.34169	5.46609	9.13084	14.06713	1.38701	-0.66002	16.60146	708.4965	24
13.604	115.211	15.36333	4.72036	9.97879	13.74273	1.67292	-0.68477	16.6056	708.4976	24
13.611	122.431	15.38702	4.01594	10.79582	13.32562	1.98995	-0.69646	16.62247	708.4983	24
13.596	129.64	15.38616	3.34032	11.55833	12.7937	2.38234	-0.70596	16.61989	708.4971	24
13.601	136.825	15.37359	2.72969	12.23907	12.19524	2.78503	-0.71444	16.60869	708.4988	24
13.611	143.999	15.39044	2.31243	12.83788	11.51242	3.31767	-0.68523	16.61341	708.498	24
13.609	151.21	15.4003	1.93263	13.35917	10.74244	3.96914	-0.69169	16.61747	708.4984	24
13.601	158.353	15.41574	1.65605	13.76641	9.93149	4.7544	-0.70164	16.62238	708.4986	24
13.611	165.583	15.41137	1.46947	14.06595	9.08139	5.53469	-0.72492	16.61801	708.4999	24
13.608	172.853	15.42057	1.362	14.26236	8.20846	6.36875	-0.74962	16.6265	708.4968	24
15.298	173.587	15.01787	0.43495	14.76474	7.88873	5.99533	-0.95366	16.63067	708.4981	24
15.291	167.167	15.00977	0.52107	14.59944	8.74217	5.17895	-0.93433	16.62466	708.4979	24
15.307	160.676	14.99946	0.6477	14.34797	9.59175	4.37964	-0.92274	16.63071	708.5009	24
15.3	154.261	14.98924	0.89103	13.97408	10.41826	3.61927	-0.92109	16.62325	708.4993	24
15.288	147.854	14.99227	1.24693	13.50069	11.20532	3.02064	-0.89599	16.61891	708.5023	24
15.293	141.428	14.98364	1.60436	12.94431	11.94465	2.39857	-0.91453	16.62174	708.5033	24
15.299	134.985	14.97	2.05014	12.31034	12.60161	1.93389	-0.92449	16.60936	708.5039	24
15.305	128.583	14.96867	2.6549	11.60977	13.21564	1.45845	-0.90527	16.61772	708.5055	24
15.309	122.142	14.96602	3.3111	10.84711	13.72411	1.09019	-0.89807	16.6229	708.5037	24
15.304	115.711	14.95366	3.99901	10.0451	14.14483	0.79213	-0.895	16.61766	708.5011	24
15.297	109.291	14.94174	4.74133	9.20178	14.48642	0.52186	-0.89177	16.62136	708.4985	24
15.293	102.897	14.929	5.5096	8.34661	14.71556	0.34321	-0.88899	16.61803	708.4954	24
15.293	96.458	14.92094	6.32952	7.4783	14.85269	0.20903	-0.91717	16.61737	708.4959	24
15.3	90	14.91188	7.16367	6.63361	14.88745	0.158	-0.93979	16.61213	708.4969	24
15.293	83.542	14.90197	8.0354	5.77629	14.80494	0.24449	-0.9593	16.60045	708.4981	24
15.293	77.103	14.89309	8.87313	4.97648	14.62885	0.3918	-0.96779	16.59169	708.4973	24
15.297	70.709	14.8825	9.69791	4.20905	14.37153	0.55758	-0.98867	16.59088	708.4929	24
15.304	64.289	14.86265	10.51178	3.43368	13.99658	0.80817	-1.00988	16.57746	708.4999	24
15.309	57.858	14.845	11.27892	2.77009	13.5533	1.11444	-1.0111	16.5684	708.5	24
15.305	51.417	14.8248	11.989	2.19747	13.00418	1.47109	-1.0504	16.55149	708.4996	24
15.299	45.015	14.82372	12.645	1.72574	12.38477	1.93999	-1.04706	16.54926	708.5002	24
15.293	38.572	14.79433	13.22855	1.22513	11.67799	2.4366	-1.04321	16.53192	708.493	24
15.288	32.146	14.78092	13.69775	0.88876	10.97672	2.9623	-1.02904	16.51454	708.4947	24
15.3	25.739	14.78942	14.12471	0.58645	10.16878	3.74099	-1.0492	16.51573	708.4956	24
15.307	19.324	14.78605	14.45358	0.34735	9.36638	4.44665	-1.04831	16.51883	708.491	24
15.291	12.833	14.78387	14.68525	0.18415	8.49957	5.23293	-1.0071	16.51779	708.492	24
15.298	6.413	14.77647	14.81519	0.09801	7.63777	6.07641	-1.00982	16.51492	708.489	24
15.3	0	14.77802	14.84431	0.07997	6.81114	6.90905	-0.98917	16.51702	708.4851	24
15.298	-6.413	14.77052	14.7898	0.11923	5.99721	7.74398	-0.97722	16.52077	708.4861	24
15.291	-12.833	14.74922	14.6155	0.23608	5.16647	8.60299	-0.9785	16.50045	708.4856	24
15.307	-19.324	14.74357	14.35295	0.44333	4.40758	9.43983	-0.99808	16.49294	708.4846	24
15.3	-25.739	14.76422	14.02245	0.68484	3.71134	10.25259	-1.00225	16.51488	708.4838	24
15.288	-32.146	14.77771	13.58064	0.97152	2.97005	11.06107	-0.99142	16.5332	708.4876	24
15.293	-38.572	14.80487	13.05706	1.32619	2.37485	11.82814	-0.99829	16.56562	708.4877	24
15.299	-45.015	14.82747	12.44538	1.78262	1.87014	12.51918	-0.99502	16.58097	708.4839	24
15.305	-51.417	14.85745	11.76875	2.33835	1.44194	13.1359	-0.98123	16.59886	708.4796	24
15.309	-57.858	14.86299	11.02263	2.91976	1.0506	13.66156	-0.98099	16.59955	708.4751	24
15.304	-64.289	14.88495	10.22456	3.62117	0.75	14.10653	-0.99544	16.60424	708.4738	24
15.297	-70.709	14.90998	9.39137	4.43812	0.54821	14.44974	-1.01839	16.60864	708.4712	24
15.293	-77.103	14.92345	8.55862	5.20507	0.37025	14.68647	-1.02793	16.61322	708.4727	24
15.293	-83.542	14.94804	7.71614	6.01478	0.3005	14.83046	-1.04944	16.62826	708.4715	24
15.3	-90	14.95208	6.84715	6.86513	0.29201	14.86557	-1.06405	16.62166	708.4694	24
15.293	-96.458	14.95589	6.03344	7.71868	0.30902	14.81921	-1.04627	16.62794	708.4673	24
15.293	-102.897	14.95483	5.2276	8.59067	0.45079	14.65912	-1.03938	16.62156	708.4667	24
15.297	-109.291	14.95247	4.46772	9.43645	0.6093	14.41525	-1.04105	16.62202	708.4634	24
15.304	-115.711	14.95064	3.74465	10.26355	0.77728	14.07215	-1.03394	16.6228	708.4632	24
15.309	-122.142	14.95356	3.03117	11.06565	1.10026	13.62874	-1.02513	16.62598	708.4601	24
15.305	-128.583	14.94166	2.41236	11.8174	1.45234	13.08049	-1.04174	16.6194	708.4578	24
15.299	-134.985	14.9448	1.8659	12.49935	1.90165	12.4459	-1.03197	16.61498	708.4573	24
15.293	-141.428	14.95351	1.46549	13.1055	2.50764	11.74762	-1.01626	16.61162	708.4561	24
15.288	-147.854	14.95217	1.11631	13.6431	3.14159	10.98573	-1.0359	16.61249	708.457	24
15.3	-154.261	14.96389	0.81827	14.06938	3.84253	10.18556	-1.03255	16.61794	708.4573	24
15.307	-160.676	14.9686	0.5784	14.42254	4.571	9.35136	-1.03248	16.62099	708.4556	24
15.291	-167.167	14.98648	0.46266	14.66352	5.37853	8.50259	-0.98557	16.62208	708.4565	24
15.298	-173.587	14.99166	0.39007	14.7949	6.18351	7.65831	-0.99875	16.61764	708.4541	24
15.3	180	14.99831	0.36653	14.82504	7.02507	6.8117	-0.99046	16.61813	708.4533	24
17	180	14.5336	-0.56844	15.26746	6.65607	6.41181	-1.23781	16.62369	708.4565	24
16.99	-174.179	14.51751	-0.56932	15.24461	5.81195	7.24429	-1.27049	16.61993	708.457	24
17.009	-168.383	14.49537	-0.52125	15.11987	4.98991	8.08578	-1.26827	16.61384	708.4593	24
17	-162.596	14.49166	-0.40105	14.91684	4.22624	8.93015	-1.2855	16.62308	708.4584	24
16.99	-156.759	14.4656	-0.26792	14.60791	3.39867	9.77365	-1.29976	16.61755	708.4539	24
16.995	-150.919	14.46375	0.02473	14.21819	2.72027	10.61067	-1.28526	16.62107	708.4525	24
16.988	-145.161	14.47	0.38937	13.74063	2.08073	11.39653	-1.27624	16.62131	708.4517	24
17.014	-139.343	14.46145	0.71252	13.19301	1.51048	12.12263	-1.27166	16.62268	708.4513	24
17.007	-133.546	14.45019	1.15071	12.54307	0.95494	12.79603	-1.30323	16.61483	708.4478	24
17.001	-127.699	14.43497	1.653	11.83738	0.51112	13.4035	-1.31982	16.60901	708.4466	24
17.006	-121.937	14.45346	2.34847	11.08068	0.19133	13.93834	-1.31237	16.61415	708.4456	24
17.002	-116.134	14.46332	3.01645	10.29984	-0.07209	14.3891	-1.28919	16.61715	708.4441	24
17.001	-110.31	14.46646	3.72668	9.49052	-0.23996	14.74324	-1.28204	16.61479	708.4471	24
16.988	-104.517	14.46847	4.43563	8.63879	-0.42485	15.01255	-1.27723	16.61511	708.4501	24
17.008	-98.662	14.45916	5.21617	7.75685	-0.57813	15.19881	-1.28274	16.61452	708.4541	24
16.996	-92.909	14.47418	6.03002	6.90851	-0.61955	15.29741	-1.31141	16.62681	708.4595	24
16.996	-87.091	14.45869	6.83119	6.05981	-0.64546	15.29332	-1.33697	16.61489	708.4605	24
17.012	-81.253	14.4434	7.74743	5.20288	-0.63098	15.22404	-1.34643	16.6155	708.4653	24
16.988	-75.483	14.44015	8.59336	4.44115	-0.48859	15.04911	-1.32038	16.60894	708.4732	24
17.001	-69.69	14.42668	9.44191	3.6744	-0.30858	14.79139	-1.27731	16.60807	708.4656	24
17.002	-63.866	14.39588	10.26725	2.89148	-0.09467	14.43235	-1.23659	16.59725	708.4658	24
17.006	-58.063	14.37825	11.05031	2.22298	0.20275	13.99724	-1.21711	16.59726	708.4678	24
17.001	-52.301	14.36077	11.79039	1.64941	0.56926	13.47448	-1.21515	16.59217	708.4654	24
17.007	-46.454	14.34378	12.48559	1.13463	0.97052	12.8673	-1.22779	16.58521	708.4589	24
17.014	-40.657	14.31818	13.09855	0.67993	1.41441	12.19907	-1.26227	16.56746	708.4554	24
16.988	-34.839	14.30888	13.63321	0.30054	1.97664	11.47178	-1.27823	16.54616	708.4551	24
16.995	-29.081	14.2887	14.08896	0.00502	2.61742	10.69045	-1.28824	16.51977	708.4492	24
16.99	-23.241	14.26839	14.48945	-0.24659	3.31731	9.85165	-1.27279	16.49628	708.4439	24
17	-17.404	14.24931	14.80684	-0.49377	4.02877	9.03498	-1.22312	16.48275	708.4509	24
17.009	-11.617	14.24469	15.02964	-0.68109	4.78686	8.19748	-1.19309	16.47669	708.447	24
16.99	-5.821	14.25645	15.17219	-0.79118	5.59421	7.34793	-1.20757	16.48088	708.4531	24
17	0	14.26842	15.2705	-0.87578	6.40677	6.51548	-1.23868	16.51132	708.4584	24
16.99	5.821	14.27795	15.23961	-0.85296	7.24866	5.69068	-1.27871	16.50994	708.471	24
17.009	11.617	14.27496	15.11982	-0.76568	8.08896	4.88367	-1.2986	16.50102	708.4778	24
17	17.404	14.2751	14.92587	-0.66175	8.92438	4.10509	-1.31982	16.50816	708.4673	24
16.99	23.241	14.29993	14.64491	-0.43401	9.75831	3.38721	-1.31865	16.52551	708.4595	24
16.995	29.081	14.3023	14.25363	-0.10257	10.60326	2.62288	-1.28304	16.5275	708.4556	24
16.988	34.839	14.30842	13.80886	0.22045	11.34715	2.00686	-1.28689	16.53307	708.4561	24
17.014	40.657	14.31549	13.28512	0.58453	12.05552	1.48709	-1.29509	16.53843	708.4545	24
17.007	46.454	14.34055	12.70087	0.98497	12.7242	1.01514	-1.30547	16.54902	708.4602	24
17.001	52.301	14.35424	12.02832	1.46523	13.33257	0.59099	-1.32627	16.55503	708.4651	24
17.006	58.063	14.37183	11.31985	2.02634	13.87724	0.24215	-1.29732	16.57136	708.4736	24
17.002	63.866	14.38323	10.5698	2.63057	14.33175	-0.04885	-1.29541	16.5816	708.476	24
17.001	69.69	14.40246	9.76735	3.35726	14.70006	-0.3123	-1.25272	16.59063	708.4686	24
16.988	75.483	14.42259	8.93574	4.17717	14.97592	-0.48809	-1.21257	16.58966	708.4815	24
17.012	81.253	14.41533	8.08953	4.94909	15.17658	-0.65937	-1.19723	16.58992	708.4706	24
16.996	87.091	14.42873	7.23179	5.776	15.28797	-0.75697	-1.1807	16.59595	708.4624	24
16.996	92.909	14.43791	6.39592	6.62362	15.2986	-0.73676	-1.17502	16.59437	708.4692	24
17.008	98.662	14.4361	5.5688	7.46922	15.23522	-0.69269	-1.17074	16.5978	708.4695	24
16.988	104.517	14.45407	4.7768	8.38946	15.06609	-0.53819	-1.16136	16.59942	708.4666	24
17.001	110.31	14.46653	4.00873	9.24927	14.8206	-0.32095	-1.14387	16.60274	708.4634	24
17.002	116.134	14.47984	3.28647	10.07136	14.48291	-0.09933	-1.12746	16.60509	708.4651	24
17.006	121.937	14.48783	2.59717	10.88083	14.07168	0.22328	-1.12368	16.60504	708.4688	24
17.001	127.699	14.48948	1.976	11.62616	13.5674	0.52437	-1.13016	16.60244	708.4736	24
17.007	133.546	14.50767	1.39945	12.35684	12.97639	1.00664	-1.14346	16.61007	708.4756	24
17.014	139.343	14.51744	0.92926	13.00552	12.30775	1.48395	-1.16202	16.60762	708.4802	24
16.988	145.161	14.53321	0.56318	13.57262	11.60691	2.00054	-1.1529	16.61502	708.4761	24
16.995	150.919	14.53375	0.24035	14.06083	10.86119	2.56227	-1.14978	16.61214	708.4651	24
16.99	156.759	14.53225	-0.12913	14.4877	10.02899	3.24287	-1.16367	16.61287	708.469	24
17	162.596	14.54039	-0.27689	14.81676	9.21413	3.99029	-1.16042	16.61341	708.4649	24
17.009	168.383	14.52837	-0.43589	15.05381	8.3629	4.75387	-1.17051	16.60797	708.4673	24
16.99	174.179	14.5388	-0.52747	15.20589	7.50723	5.56924	-1.20498	16.6176	708.4673	24
18.709	174.675	14.01357	-1.44931	15.59758	7.1034	5.15091	-1.45407	16.62083	708.4663	24
18.703	169.441	14.01057	-1.35218	15.45663	7.92423	4.35519	-1.41745	16.60946	708.4712	24
18.691	164.085	14.01542	-1.23261	15.24795	8.78261	3.56082	-1.4157	16.61707	708.4717	24
18.706	158.818	13.99411	-1.14407	14.9499	9.58633	2.7986	-1.42863	16.60927	708.4751	24
18.695	153.537	13.99626	-0.82593	14.56193	10.42121	2.11017	-1.45158	16.6084	708.479	24
18.704	148.255	13.99782	-0.49394	14.11855	11.20228	1.52612	-1.44507	16.60888	708.4807	24
18.698	142.952	14.00529	-0.1121	13.58116	11.95513	0.97677	-1.42991	16.6116	708.4788	24
18.699	137.625	13.98659	0.23335	12.98528	12.63978	0.47457	-1.41844	16.61017	708.4776	24
18.705	132.343	13.97875	0.65918	12.3356	13.27642	0.08148	-1.40157	16.61284	708.479	24
18.713	127.067	13.96056	1.24801	11.60039	13.85781	-0.35816	-1.37119	16.60753	708.4746	24
18.7	121.794	13.96258	1.85691	10.8491	14.34239	-0.64764	-1.36201	16.60133	708.4712	24
18.698	116.504	13.94383	2.51705	10.04364	14.76412	-0.97826	-1.38116	16.59707	708.4714	24
18.707	111.165	13.93363	3.2449	9.22137	15.11146	-1.18821	-1.41564	16.60309	708.479	24
18.69	105.863	13.91929	3.99837	8.37822	15.36862	-1.38494	-1.45083	16.59785	708.4801	24
18.696	100.583	13.90786	4.75385	7.51967	15.55463	-1.52272	-1.47763	16.597	708.4758	24
18.7	95.309	13.8979	5.56314	6.6707	15.66174	-1.6597	-1.462	16.59875	708.4707	24
18.7	90	13.89469	6.38548	5.8287	15.68835	-1.70276	-1.44087	16.60052	708.4766	24
18.7	84.691	13.88299	7.21822	4.99341	15.63275	-1.66762	-1.43798	16.59705	708.4776	24
18.696	79.417	13.88003	8.01907	4.14441	15.49682	-1.526	-1.43718	16.59518	708.4751	24
18.69	74.137	13.87053	8.85869	3.37828	15.28119	-1.40184	-1.47734	16.59038	708.4751	24
18.707	68.835	13.86515	9.71374	2.57722	14.98831	-1.1598	-1.54217	16.5947	708.4722	24
18.698	63.496	13.86196	10.51298	1.9306	14.59936	-0.85431	-1.5863	16.58109	708.4702	24
18.7	58.206	13.84897	11.26209	1.36105	14.14876	-0.60684	-1.61689	16.57242	708.4721	24
18.713	52.933	13.8245	12.00514	0.72365	13.61411	-0.25885	-1.61194	16.56352	708.4729	24
18.705	47.657	13.81132	12.66434	0.32041	13.01529	0.11422	-1.59879	16.54469	708.4734	24
18.699	42.375	13.7999	13.27864	-0.10634	12.35512	0.56702	-1.56536	16.53515	708.4695	24
18.698	37.048	13.7794	13.81203	-0.3931	11.66475	0.9982	-1.54711	16.51754	708.4646	24
18.704	31.745	13.75912	14.29539	-0.75571	10.91656	1.55422	-1.51932	16.50294	708.4646	24
18.695	26.463	13.74183	14.71918	-1.14505	10.12003	2.17376	-1.54078	16.50159	708.4649	24
18.706	21.182	13.71431	15.05548	-1.47666	9.28537	2.83526	-1.59583	16.49273	708.4641	24
18.691	15.915	13.70855	15.31463	-1.7049	8.45102	3.57158	-1.61424	16.48802	708.4658	24
18.703	10.559	13.73418	15.50217	-1.71996	7.59653	4.49392	-1.60925	16.49471	708.4639	24
18.709	5.325	13.72237	15.59828	-1.77869	6.79414	5.28317	-1.57313	16.48951	708.4673	24
18.7	0	13.7224	15.61949	-1.82783	5.97367	6.05958	-1.51346	16.4938	708.4634	24
18.709	-5.325	13.67273	15.53885	-1.73921	5.16366	6.85899	-1.4586	16.45114	708.4636	24
18.703	-10.559	13.68641	15.4265	-1.65872	4.37401	7.71215	-1.44907	16.46915	708.4634	24
18.691	-15.915	13.69389	15.22331	-1.46562	3.62247	8.57469	-1.46928	16.47498	708.4595	24
18.706	-21.182	13.7074	14.95968	-1.27407	2.90003	9.41834	-1.53112	16.49791	708.4578	24
18.695	-26.463	13.72396	14.59652	-1.07917	2.19379	10.24241	-1.60319	16.5158	708.4573	24
18.704	-31.745	13.75301	14.18295	-0.76602	1.57112	11.05325	-1.62689	16.54362	708.4617	24
18.698	-37.048	13.77057	13.68409	-0.47478	1.03511	11.79883	-1.5945	16.56	708.4673	24
18.699	-42.375	13.79618	13.1097	-0.04178	0.52375	12.51755	-1.53665	16.58062	708.4685	24
18.705	-47.657	13.81242	12.48401	0.38727	0.1097	13.16725	-1.50235	16.59638	708.4673	24
18.713	-52.933	13.82331	11.77855	0.89782	-0.27286	13.74848	-1.47829	16.58988	708.4673	24
18.7	-58.206	13.84131	11.03329	1.45785	-0.63334	14.26694	-1.46978	16.5967	708.4656	24
18.698	-63.496	13.85629	10.24735	2.13698	-0.91638	14.69722	-1.49774	16.59234	708.4656	24
18.707	-68.835	13.87621	9.44092	2.84208	-1.17245	15.06989	-1.5551	16.60207	708.4729	24
18.69	-74.137	13.89678	8.59013	3.60194	-1.34366	15.34683	-1.62238	16.60314	708.4595	24
18.696	-79.417	13.8951	7.76124	4.29442	-1.56409	15.54878	-1.67649	16.61263	708.4597	24
18.7	-84.691	13.89798	6.90023	5.1318	-1.62072	15.64368	-1.65348	16.60241	708.4527	24
18.7	-90	13.9132	6.05184	6.03449	-1.59767	15.67499	-1.60248	16.60284	708.4541	24
18.7	-95.309	13.92986	5.24999	6.90651	-1.4758	15.63317	-1.55977	16.60657	708.4556	24
18.696	-100.583	13.9049	4.32585	7.75072	-1.5734	15.52227	-1.53279	16.61282	708.4534	24
18.69	-105.863	13.91048	3.58144	8.62257	-1.3782	15.30246	-1.5284	16.60165	708.4439	24
18.707	-111.165	13.91781	2.86573	9.45968	-1.18795	15.02717	-1.55661	16.6104	708.4383	24
18.698	-116.504	13.92869	2.23382	10.27255	-0.92751	14.65124	-1.59226	16.60545	708.4367	24
18.7	-121.794	13.938	1.65039	11.05707	-0.58607	14.19893	-1.61811	16.59996	708.437	24
18.713	-127.067	13.90827	0.97236	11.80136	-0.35002	13.67749	-1.62078	16.59857	708.4282	24
18.705	-132.343	13.92502	0.54528	12.50231	0.09312	13.10322	-1.60736	16.6055	708.4321	24
18.699	-137.625	13.92167	0.00621	13.15267	0.54857	12.42889	-1.55897	16.59851	708.4264	24
18.698	-142.952	13.92858	-0.30829	13.74213	1.07186	11.72622	-1.54394	16.60041	708.4268	24
18.704	-148.255	13.93257	-0.59087	14.25429	1.674	10.97913	-1.53401	16.60057	708.43	24
18.695	-153.537	13.93392	-0.98745	14.70645	2.34484	10.1591	-1.55706	16.60846	708.4282	24
18.706	-158.818	13.93926	-1.21889	15.05901	3.04362	9.33175	-1.56218	16.60733	708.4282	24
18.691	-164.085	13.97455	-1.30335	15.31711	3.84054	8.50032	-1.56859	16.61011	708.4282	24
18.703	-169.441	13.9669	-1.46641	15.50754	4.60398	7.63233	-1.57334	16.60087	708.4263	24
18.709	-174.675	13.99415	-1.49757	15.62293	5.42067	6.80635	-1.54531	16.61323	708.4268	24
18.7	180	14.00603	-1.49743	15.64664	6.25148	5.97329	-1.49547	16.61541	708.426	24
20.4	180	13.41151	-2.44531	15.96549	5.79682	5.48904	-1.77762	16.61316	708.4229	24
20.401	-175.153	13.3975	-2.4392	15.94092	4.99515	6.31199	-1.83938	16.60342	708.4243	24
20.407	-170.264	13.37175	-2.40513	15.84556	4.17001	7.15207	-1.89655	16.59896	708.4226	24
20.41	-165.423	13.3619	-2.30205	15.69295	3.34023	8.01205	-1.91006	16.61338	708.4204	24
20.392	-160.496	13.33979	-2.15805	15.44245	2.57995	8.85728	-1.86889	16.60555	708.419	24
20.401	-155.705	13.32488	-2.0107	15.12548	1.9149	9.65202	-1.84786	16.60349	708.4158	24
20.405	-150.835	13.33377	-1.61138	14.70964	1.24558	10.50985	-1.80011	16.60378	708.42	24
20.397	-145.903	13.33064	-1.31606	14.22278	0.61364	11.28965	-1.80543	16.59929	708.4212	24
20.392	-141.062	13.3243	-1.11331	13.69196	0.05323	11.99666	-1.8461	16.60562	708.416	24
20.396	-136.227	13.32278	-0.7079	13.09428	-0.38695	12.67665	-1.86728	16.59957	708.4173	24
20.408	-131.372	13.32825	-0.2919	12.46663	-0.7002	13.29674	-1.8711	16.59984	708.418	24
20.41	-126.511	13.31545	0.22554	11.74286	-1.16497	13.89651	-1.94822	16.60056	708.4175	24
20.4	-121.604	13.31811	0.79633	10.97967	-1.50875	14.4265	-1.96192	16.60423	708.4226	24
20.403	-116.741	13.30479	1.38872	10.20995	-1.79192	14.8641	-1.92994	16.59636	708.4243	24
20.413	-111.9	13.30906	2.0838	9.40363	-2.02914	15.24451	-1.88311	16.60241	708.419	24
20.398	-107.004	13.3177	2.80411	8.57709	-2.18591	15.53362	-1.81276	16.60175	708.4148	24
20.394	-102.132	13.29879	3.48472	7.70068	-2.43965	15.75053	-1.77905	16.59608	708.4141	24
20.403	-97.332	13.31911	4.26251	6.88962	-2.4754	15.91225	-1.79214	16.61426	708.4165	24
20.392	-92.44	13.33835	5.18656	6.01866	-2.43248	15.9745	-1.86031	16.60556	708.4119	24
20.392	-87.56	13.30086	5.99609	5.06151	-2.62877	15.98439	-1.94665	16.60417	708.4087	24
20.403	-82.668	13.29656	6.8433	4.24503	-2.5829	15.93375	-2.00227	16.60976	708.4104	24
20.394	-77.868	13.29912	7.67557	3.51766	-2.40149	15.79117	-2.00143	16.60051	708.3969	24
20.398	-72.996	13.28171	8.52773	2.74554	-2.24255	15.58137	-1.92169	16.59755	708.4009	24
20.413	-68.1	13.27369	9.37353	2.0058	-2.04309	15.30698	-1.82767	16.61168	708.4075	24
20.403	-63.259	13.26609	10.15562	1.38005	-1.77077	14.93775	-1.75749	16.59982	708.4104	24
20.4	-58.396	13.25161	10.95342	0.71791	-1.47331	14.49589	-1.71503	16.59829	708.4094	24
20.41	-53.489	13.22348	11.69746	0.15416	-1.13999	13.9775	-1.72914	16.58718	708.4122	24
20.408	-48.628	13.199	12.38338	-0.34097	-0.76579	13.40192	-1.76838	16.57376	708.4165	24
20.396	-43.773	13.19478	13.02188	-0.7343	-0.39968	12.79712	-1.82062	16.57699	708.4185	24
20.392	-38.938	13.18476	13.62597	-1.16849	0.1143	12.10425	-1.90405	16.56974	708.4243	24
20.397	-34.097	13.17263	14.15889	-1.52245	0.5599	11.37107	-1.96671	16.55544	708.4126	24
20.405	-29.165	13.13822	14.62819	-1.84385	1.16204	10.56646	-1.95044	16.5344	708.4104	24
20.401	-24.295	13.11546	14.99259	-2.05443	1.77077	9.77968	-1.88577	16.50443	708.4104	24
20.392	-19.504	13.10004	15.29348	-2.233	2.46632	8.96491	-1.78539	16.47425	708.4129	24
20.41	-14.577	13.0838	15.55	-2.41077	3.2152	8.09185	-1.70923	16.45883	708.4109	24
20.407	-9.736	13.06849	15.71738	-2.57523	3.91098	7.27145	-1.68914	16.44365	708.3948	24
20.401	-4.847	13.0722	15.82601	-2.67673	4.68624	6.43118	-1.71006	16.44112	708.4063	24
20.4	0	13.07371	15.87184	-2.75983	5.4839	5.58119	-1.77958	16.4426	708.4038	24
20.401	4.847	13.09629	15.87014	-2.74438	6.3226	4.73365	-1.87413	16.45971	708.4033	24
20.407	9.736	13.0826	15.81556	-2.76793	7.12263	3.89049	-1.92937	16.48331	708.4072	24
20.41	14.577	13.08777	15.65156	-2.65854	7.94292	3.13367	-1.92483	16.47976	708.4051	24
20.392	19.504	13.10197	15.43056	-2.48593	8.76379	2.41026	-1.8964	16.49447	708.4038	24
20.401	24.295	13.12526	15.13483	-2.2311	9.59268	1.74163	-1.85428	16.51051	708.4048	24
20.405	29.165	13.12838	14.74904	-1.95982	10.35518	1.14324	-1.82852	16.49569	708.4058	24
20.397	34.097	13.16586	14.2872	-1.46657	11.1886	0.52258	-1.78484	16.51178	708.4065	24
20.392	38.938	13.19358	13.78684	-1.13394	11.92879	-0.01573	-1.82393	16.53842	708.4137	24
20.396	43.773	13.22007	13.23104	-0.79298	12.61127	-0.42494	-1.86292	16.5586	708.4134	24
20.408	48.628	13.21764	12.62027	-0.50219	13.22042	-0.79637	-1.90979	16.56374	708.4148	24
20.41	53.489	13.24826	11.94452	0.04452	13.82316	-1.10152	-1.94646	16.57364	708.4143	24
20.4	58.396	13.24966	11.14718	0.6783	14.3809	-1.57836	-1.94648	16.57828	708.4031	24
20.403	63.259	13.27529	10.43793	1.20075	14.82528	-1.69429	-1.91604	16.59323	708.3985	24
20.413	68.1	13.26085	9.65153	1.75948	15.19228	-1.99395	-1.84953	16.58592	708.397	24
20.398	72.996	13.27611	8.81023	2.52041	15.51462	-2.26484	-1.75966	16.59676	708.397	24
20.394	77.868	13.2836	7.99912	3.27411	15.73033	-2.37589	-1.69119	16.58862	708.3992	24
20.403	82.668	13.28315	7.17552	4.10018	15.88313	-2.52142	-1.67519	16.58737	708.4015	24
20.392	87.56	13.29143	6.32769	4.91428	15.97177	-2.60449	-1.68225	16.58928	708.4026	24
20.392	92.44	13.30945	5.57899	5.72484	15.98157	-2.57468	-1.7208	16.58971	708.3979	24
20.403	97.332	13.31221	4.75725	6.5997	15.94565	-2.5047	-1.76584	16.60078	708.3997	24
20.394	102.132	13.31993	3.95315	7.44164	15.81501	-2.38566	-1.77855	16.59554	708.4009	24
20.398	107.004	13.31117	3.20927	8.26609	15.60619	-2.27686	-1.75508	16.5806	708.3948	24
20.413	111.9	13.3219	2.46784	9.09734	15.35257	-2.11023	-1.70832	16.58837	708.3968	24
20.403	116.741	13.34207	1.77046	9.92013	15.00695	-1.87423	-1.64429	16.59119	708.398	24
20.4	121.604	13.36102	1.10024	10.7398	14.57957	-1.54347	-1.61025	16.5966	708.3953	24
20.41	126.511	13.37747	0.49354	11.52502	14.06671	-1.17462	-1.62875	16.596	708.3914	24
20.408	131.372	13.39086	0.01028	12.22056	13.51329	-0.84253	-1.66286	16.60036	708.3906	24
20.396	136.227	13.40193	-0.3779	12.86677	12.91716	-0.55518	-1.6856	16.60434	708.3933	24
20.392	141.062	13.41107	-0.77284	13.47701	12.25867	-0.09135	-1.69228	16.60113	708.397	24
20.397	145.903	13.43487	-1.15916	14.05744	11.52795	0.49127	-1.72132	16.61067	708.397	24
20.405	150.835	13.42861	-1.50822	14.55557	10.76114	1.0221	-1.74521	16.61206	708.3973	24
20.401	155.705	13.42251	-1.82612	14.98243	9.95376	1.65405	-1.72621	16.60989	708.3958	24
20.392	160.496	13.41165	-2.13201	15.33239	9.13415	2.23726	-1.70754	16.61399	708.3931	24
20.41	165.423	13.40978	-2.25133	15.60135	8.31983	2.99103	-1.658	16.60991	708.3918	24
20.407	170.264	13.41623	-2.28314	15.78425	7.47571	3.89746	-1.6565	16.59848	708.3914	24
20.401	175.153	13.40519	-2.39865	15.90595	6.62712	4.68318	-1.70337	16.59983	708.3914	24
0.141	45	16.53062	8.78959	8.48216	8.69989	8.5653	0.18951	16.51678	708.3931	24
4.001	128.691	16.53664	7.4126	9.62651	10.14531	6.9139	0.11096	16.54881	708.3946	24
4.002	76.995	16.51793	9.05913	7.90458	10.53214	6.57413	0.09263	16.53581	708.3931	24
4.002	25.892	16.4897	10.4354	6.60965	9.37409	7.57422	0.08663	16.50808	708.391	24
4.002	-25.892	16.48855	10.39402	6.64479	7.6409	9.36268	0.10315	16.50493	708.3931	24
4.002	-76.995	16.50937	8.98804	7.99792	6.6359	10.49575	0.0948	16.5216	708.3931	24
4.001	-128.691	16.54331	7.32827	9.71502	6.95658	10.11851	0.11511	16.55305	708.3892	24
4	180	16.54654	6.67044	10.48042	8.55409	8.50687	0.10908	16.55704	708.387	24
8	180	16.31633	4.46912	12.25508	8.17959	8.05125	-0.16659	16.57817	708.3855	24
7.991	-152.37	16.3101	4.7987	11.80352	6.35157	9.98559	-0.18005	16.57538	708.3858	24
7.997	-124.55	16.30455	5.95645	10.42685	4.94476	11.5365	-0.15185	16.57875	708.3826	24
8.006	-96.837	16.28087	7.68744	8.54893	4.39703	12.27836	-0.19717	16.55532	708.3797	24
7.988	-69.228	16.24469	9.56301	6.65835	4.53902	12.00638	-0.16212	16.52238	708.3775	24
7.997	-41.563	16.20113	11.22048	5.20135	5.53879	10.82833	-0.15427	16.4883	708.377	24
8.008	-13.821	16.17465	12.18794	4.36889	7.09953	9.03861	-0.17134	16.47089	708.3758	24
8.008	13.821	16.19091	12.25832	4.31793	8.99215	7.13852	-0.15633	16.49415	708.3775	24
7.997	41.563	16.22799	11.37114	5.01346	10.84589	5.43434	-0.19533	16.53795	708.3768	24
7.988	69.228	16.23973	9.73004	6.51518	12.02972	4.4864	-0.17398	16.54099	708.3806	24
8.006	96.837	16.26301	7.82111	8.40598	12.31292	4.33252	-0.12421	16.55243	708.3836	24
7.997	124.55	16.28612	6.07955	10.2989	11.60434	4.87124	-0.141	16.5646	708.3853	24
7.991	152.37	16.30832	4.83752	11.72478	10.08699	6.18113	-0.14278	16.57738	708.387	24
12.009	161.059	15.72847	2.44485	13.4023	9.63671	5.56585	-0.52625	16.59269	708.3943	24
12.013	142.081	15.70636	3.20288	12.34293	11.43918	3.89521	-0.50043	16.58631	708.3892	24
12.006	123.113	15.69344	4.5956	10.72631	12.85008	2.8386	-0.52196	16.57764	708.3965	24
12.007	104.2	15.66256	6.33236	8.79454	13.65931	2.18947	-0.46697	16.5661	708.3992	24
11.989	85.301	15.6411	8.25304	6.8229	13.79543	2.06884	-0.54285	16.55429	708.397	24
12.013	66.294	15.60659	10.1967	4.95522	13.22943	2.46542	-0.56262	16.53048	708.3914	24
12.012	47.388	15.57318	11.89756	3.42068	12.03644	3.30744	-0.61425	16.51554	708.3958	24
11.99	28.44	15.54911	13.12438	2.43922	10.32023	4.73881	-0.61718	16.4844	708.3909	24
11.991	9.464	15.55394	13.78803	1.91375	8.36997	6.52662	-0.55207	16.49984	708.3909	24
11.991	-9.464	15.51784	13.69427	2.01035	6.4466	8.46413	-0.56486	16.45378	708.3787	24
11.99	-28.44	15.54001	13.01593	2.51104	4.70096	10.41576	-0.52694	16.47849	708.3736	24
12.012	-47.388	15.59036	11.744	3.54874	3.27203	12.14484	-0.5825	16.53862	708.3721	24
12.013	-66.294	15.65609	9.98736	5.13337	2.44527	13.30929	-0.58637	16.57309	708.3697	24
11.989	-85.301	15.6812	8.0137	7.00433	2.09412	13.80087	-0.59029	16.57866	708.3703	24
12.007	-104.2	15.69173	6.11659	9.00816	2.24367	13.62627	-0.61357	16.58728	708.3699	24
12.006	-123.113	15.69409	4.40622	10.89429	2.7968	12.79629	-0.55986	16.58753	708.3686	24
12.013	-142.081	15.70302	3.09286	12.4705	4.06101	11.32177	-0.5969	16.58729	708.3631	24
12.009	-161.059	15.7109	2.40974	13.4696	5.71523	9.46366	-0.5819	16.5816	708.3591	24
16	180	14.8026	-0.02588	15.00114	6.8752	6.63143	-1.0864	16.59854	708.3658	24
15.99	-165.604	14.76756	0.09015	14.7783	4.93827	8.60529	-1.10619	16.59304	708.3662	24
16.002	-151.165	14.75335	0.55053	14.03374	3.20302	10.56059	-1.13607	16.60189	708.3672	24
16.002	-136.836	14.73098	1.35554	12.78326	1.7163	12.29979	-1.12411	16.59065	708.3675	24
15.995	-122.439	14.72893	2.6798	11.11446	0.72647	13.70262	-1.13107	16.58479	708.3618	24
15.993	-107.966	14.74913	4.39971	9.22137	0.21181	14.61676	-1.12792	16.593	708.356	24
16.005	-93.629	14.75021	6.17726	7.21677	-0.09684	15.03002	-1.15211	16.60707	708.354	24
15.992	-79.234	14.72601	8.15279	5.2521	-0.04546	14.90675	-1.16057	16.58878	708.3553	24
16.009	-64.774	14.68842	10.17341	3.40781	0.36748	14.28454	-1.10068	16.58844	708.3585	24
15.997	-50.364	14.63895	11.9324	1.94423	1.1732	13.11505	-1.07044	16.55654	708.3699	24
15.997	-36.045	14.58174	13.36253	0.84366	2.28852	11.54415	-1.09504	16.51483	708.3797	24
16	-21.597	14.54049	14.35487	0.18664	3.88226	9.69006	-1.09842	16.45948	708.3853	24
16.003	-7.169	14.53504	14.89348	-0.22476	5.69123	7.7164	-1.05541	16.45453	708.3611	24
16.003	7.169	14.57983	14.95779	-0.26704	7.62006	5.78029	-1.12278	16.48928	708.3658	24
16	21.597	14.56842	14.5028	0.02241	9.5937	3.94968	-1.16312	16.49055	708.3484	24
15.997	36.045	14.59265	13.53759	0.74243	11.45859	2.31933	-1.14404	16.51442	708.3501	24
15.997	50.364	14.62466	12.16201	1.78034	12.99321	1.21258	-1.14685	16.53089	708.3438	24
16.009	64.774	14.66215	10.45889	3.1659	14.18006	0.41728	-1.1156	16.56474	708.3438	24
15.992	79.234	14.69299	8.52153	4.99016	14.85825	-0.0501	-1.0555	16.57203	708.3501	24
16.005	93.629	14.70711	6.53417	6.93816	15.03596	-0.20125	-1.02418	16.58002	708.3462	24
15.993	107.966	14.73021	4.65916	8.99571	14.68189	0.11801	-0.98924	16.582	708.3516	24
15.995	122.439	14.75451	2.98184	10.9139	13.82333	0.75402	-0.98754	16.58038	708.3455	24
16.002	136.836	14.77695	1.59575	12.59954	12.49503	1.73505	-1.01481	16.58937	708.3362	24
16.002	151.165	14.78965	0.7258	13.86165	10.81361	3.01812	-1.00649	16.58688	708.3347	24
15.99	165.604	14.80057	0.17578	14.69141	8.86807	4.73237	-1.02063	16.58889	708.3291	24
20.003	168.362	13.56235	-2.03348	15.65384	7.88506	3.72127	-1.59858	16.60354	708.3328	24
20.008	156.764	13.54928	-1.70396	15.00909	9.79636	1.96179	-1.65307	16.60436	708.3318	24
20	145.147	13.54903	-0.92507	13.9333	11.63073	0.56555	-1.65471	16.59258	708.3343	24
19.995	133.545	13.52584	-0.02342	12.52454	13.21292	-0.50007	-1.61463	16.59562	708.3267	24
20.009	121.926	13.50007	1.218	10.82985	14.49557	-1.32726	-1.55651	16.59863	708.3252	24
20.005	110.327	13.47349	2.84799	8.92235	15.3737	-1.91578	-1.64975	16.5892	708.3306	24
19.989	98.733	13.45314	4.61179	6.93945	15.83071	-2.24544	-1.7028	16.5864	708.3406	24
19.999	87.075	13.42784	6.49103	4.97343	15.89701	-2.38522	-1.62388	16.58375	708.3411	24
19.992	75.457	13.41829	8.47026	3.05514	15.57247	-2.13595	-1.66886	16.59378	708.3365	24
20.009	63.844	13.41458	10.3623	1.44399	14.82477	-1.52998	-1.82762	16.58615	708.3369	24
19.989	52.269	13.39556	12.0978	0.12882	13.65806	-0.79287	-1.84392	16.5612	708.3391	24
19.999	40.602	13.34438	13.55574	-0.80681	12.1665	0.03538	-1.77372	16.53072	708.3365	24
20.004	29.051	13.2833	14.70142	-1.72364	10.3842	1.33101	-1.75247	16.49355	708.3384	24
20.005	17.433	13.24828	15.44839	-2.33903	8.50334	2.84675	-1.83403	16.47792	708.3306	24
20.006	5.78	13.26019	15.81718	-2.51224	6.58856	4.70848	-1.80897	16.48275	708.325	24
20.006	-5.78	13.21521	15.74858	-2.43917	4.67421	6.66891	-1.64207	16.44012	708.3262	24
20.005	-17.433	13.21736	15.36146	-2.1251	2.91196	8.63938	-1.69971	16.46856	708.3257	24
20.004	-29.051	13.27493	14.59782	-1.62803	1.34941	10.567	-1.8676	16.53277	708.3245	24
19.999	-40.602	13.31985	13.39952	-0.8368	0.06639	12.33261	-1.80776	16.56983	708.3251	24
19.989	-52.269	13.37431	11.87937	0.23169	-0.83639	13.79859	-1.67717	16.58378	708.3273	24
20.009	-63.844	13.40272	10.10266	1.60779	-1.60362	14.92888	-1.70245	16.60009	708.3242	24
19.992	-75.457	13.42814	8.17699	3.26307	-2.1207	15.63129	-1.89798	16.5988	708.3243	24
19.999	-87.075	13.44775	6.21002	5.08268	-2.38199	15.92141	-1.88232	16.61063	708.3289	24
19.989	-98.733	13.45	4.1725	7.1816	-2.2872	15.79475	-1.73038	16.59766	708.3297	24
20.005	-110.327	13.46298	2.48172	9.18462	-1.87656	15.28662	-1.78603	16.6026	708.3245	24
20.009	-121.926	13.46242	0.96049	11.04153	-1.29543	14.34511	-1.8935	16.59797	708.3238	24
19.995	-133.545	13.48162	-0.19461	12.73564	-0.35787	13.01763	-1.82237	16.59972	708.3267	24
20	-145.147	13.48037	-1.05666	14.09981	0.70526	11.41688	-1.75224	16.60016	708.3213	24
20.008	-156.764	13.47881	-1.8448	15.14158	2.23861	9.51601	-1.77992	16.60287	708.3179	24
20.003	-168.362	13.5162	-2.12285	15.71052	4.00847	7.56824	-1.82391	16.59385	708.3169	24
20	180	13.54945	-2.22671	15.89282	5.89231	5.60806	-1.71391	16.6086	708.3152	24
